Data from USB2G577181__1__14-48-41-088.txt Node

Date: Tue Nov 29 14:48:41 PST 2022
User: gprabhakar
Spectrometer: USB2G57718
Scans to average: 1
Trigger mode: 4
Integration Time (sec): 1.000000E-1
Electric dark correction enabled: true
Boxcar width: 0
XAxis mode: Wavelengths
Number of Pixels in Spectrum: 651
>>>>>Begin Spectral Data<<<<<
350	0.21
351	2.54
352	1.42
353	-10.37
354	6.2
355	10.97
356	8.52
357	10.04
358	12.42
359	16.2
360	19.77
361	16.67
362	22.37
363	28.02
364	28.77
365	22.15
366	19.71
367	56.53
368	36.48
369	40.28
370	33.84
371	45.29
372	52.6
373	43.73
374	58.88
375	52.45
376	55.1
377	65.98
378	65.98
379	71.07
380	71.11
381	66
382	83.72
383	88.07
384	87.48
385	89.64
386	98.66
387	102.36
388	112.11
389	111.62
390	119.06
391	130.52
392	123.67
393	128.45
394	142.38
395	137.32
396	152.58
397	161.67
398	171.43
399	170.1
400	178.23
401	181.93
402	190.4
403	198.18
404	194.37
405	202.09
406	213.36
407	209.97
408	218.22
409	223.14
410	235.04
411	237.68
412	256.13
413	253.11
414	260.01
415	275.11
416	282.11
417	293.36
418	306.46
419	297.4
420	317.48
421	320.16
422	328.63
423	336.5
424	344.78
425	348.78
426	363.57
427	379.5
428	380.55
429	388.16
430	416.54
431	422.96
432	422.21
433	441.07
434	459.42
435	467.34
436	485.99
437	481.87
438	501.71
439	503.23
440	526.91
441	533.41
442	563.83
443	553.85
444	584.76
445	571.41
446	593.2
447	596.52
448	619.49
449	623.12
450	639.99
451	638.32
452	659.25
453	677.78
454	692.54
455	723.38
456	723.17
457	728.61
458	755.65
459	785.04
460	794.02
461	815.66
462	825.93
463	848.08
464	888.42
465	897.58
466	924.46
467	958.66
468	989.1
469	1015
470	1056.6
471	1077.29
472	1122.26
473	1159.73
474	1209.52
475	1206.02
476	1213.52
477	1240.06
478	1315.59
479	1362.92
480	1384.45
481	1464.99
482	1503.86
483	1535.23
484	1576.95
485	1598.4
486	1641.18
487	1629.12
488	1707.64
489	1761.94
490	1757.39
491	1731.96
492	1748.56
493	1763.75
494	1816.22
495	1906.74
496	1983.4
497	2034.2
498	2074.08
499	2084.52
500	2109.52
501	2136.97
502	2167.17
503	2198.68
504	2207.13
505	2258.02
506	2294.43
507	2346.51
508	2352.94
509	2345.73
510	2381.64
511	2396.33
512	2427.2
513	2472.63
514	2501.73
515	2497.58
516	2525.1
517	2582.66
518	2588.78
519	2613.12
520	2639.04
521	2638.7
522	2663.34
523	2674.6
524	2714.73
525	2732.39
526	2756.34
527	2795.59
528	2793.1
529	2804.06
530	2840.08
531	2842.37
532	2882.01
533	2850.08
534	2887.54
535	2902.72
536	2921.34
537	2924.58
538	2928.04
539	2970.41
540	2956.61
541	2970.57
542	2990.56
543	3006.27
544	2999.07
545	3026.63
546	3009.75
547	3010.13
548	3028.87
549	3042.6
550	3055.14
551	3055.63
552	3047.62
553	3092.12
554	3074.39
555	3084.79
556	3105.02
557	3099.7
558	3113.37
559	3133.05
560	3127.79
561	3123.45
562	3123.47
563	3131.08
564	3145.29
565	3114.7
566	3130.29
567	3109.65
568	3115.27
569	3108.32
570	3090.59
571	3111.95
572	3104.89
573	3075.54
574	3078.29
575	3075.61
576	3037.04
577	3028.5
578	3050.75
579	3002.35
580	2982.06
581	2963.97
582	3000.26
583	2978.51
584	2985.52
585	2953.29
586	2953.48
587	2953.81
588	2949.94
589	2962.12
590	2947.82
591	2916.02
592	2799.89
593	2876.87
594	2915.35
595	2907.17
596	2905.96
597	2913.78
598	2893.25
599	2880.7
600	2896.25
601	2904.39
602	2887.39
603	2880.64
604	2886.57
605	2878.87
606	2863.72
607	2849.98
608	2861.84
609	2840.37
610	2840.25
611	2803.63
612	2794.18
613	2776.04
614	2794.71
615	2758.68
616	2756.8
617	2727.56
618	2714.77
619	2714.62
620	2656.79
621	2656.05
622	2654.13
623	2586.87
624	2586.68
625	2609.42
626	2549.23
627	2520.31
628	2499.25
629	2439.58
630	2465.29
631	2448.44
632	2422.42
633	2417.92
634	2377.47
635	2357.48
636	2331.14
637	2304.6
638	2306.62
639	2274.02
640	2245.72
641	2223.25
642	2167.78
643	2176.11
644	2137.81
645	2123.27
646	2071.07
647	2062.24
648	2026.14
649	2005.51
650	1977.77
651	1975.3
652	1933.04
653	1925.63
654	1889.46
655	1851.93
656	1791.64
657	1838.75
658	1798.18
659	1789.28
660	1762.06
661	1717.61
662	1710.74
663	1676.29
664	1671.62
665	1624.97
666	1624.58
667	1594.02
668	1562.03
669	1551.98
670	1509.29
671	1452.74
672	1447.52
673	1439.79
674	1382.75
675	1387.58
676	1361.69
677	1327.98
678	1307.6
679	1294.68
680	1241.58
681	1228.61
682	1228.23
683	1205.59
684	1177.19
685	1154.9
686	1119.16
687	1093.96
688	1077.63
689	1055.42
690	1040.27
691	1013.96
692	994.74
693	970.61
694	960.35
695	938.91
696	925.08
697	877.46
698	869.41
699	862.87
700	851.08
701	821.18
702	801.09
703	800.89
704	774.56
705	758.44
706	741.99
707	727.86
708	713.03
709	697.58
710	691.07
711	675.98
712	660.31
713	657.09
714	633.92
715	635.02
716	606.31
717	570.67
718	568.18
719	558.14
720	552.91
721	535.86
722	527.19
723	522.66
724	506.36
725	490.34
726	478.67
727	476.35
728	449.26
729	450.93
730	440.33
731	419.51
732	420.12
733	412.55
734	408.01
735	384.15
736	379.48
737	359.58
738	367.76
739	347.73
740	335.27
741	329.27
742	320.61
743	300.45
744	302.76
745	302.61
746	284.69
747	275
748	261.42
749	242.19
750	249.83
751	233.79
752	235.35
753	236.74
754	230.25
755	217.79
756	207.59
757	198.63
758	199.45
759	176.74
760	174.57
761	177.05
762	179.99
763	176.53
764	164.86
765	161.62
766	158.81
767	155.56
768	141.3
769	129.46
770	131.25
771	124.93
772	122.67
773	109.63
774	109.92
775	113.49
776	105.44
777	104.07
778	103.19
779	95.41
780	86.19
781	99.25
782	88.79
783	83.45
784	76.62
785	80.06
786	76.5
787	72.79
788	80.73
789	79.72
790	86.22
791	68.45
792	67.82
793	59.45
794	56.51
795	55.35
796	50.3
797	50.05
798	54
799	47.49
800	46.46
801	36.69
802	33.92
803	32.35
804	38.79
805	37.38
806	28.65
807	23.73
808	26.62
809	26.99
810	17.19
811	17.34
812	16.8
813	9.91
814	0.58
815	10.84
816	7.32
817	5.51
818	5.67
819	5.83
820	4.94
821	-6.27
822	2.04
823	-0.14
824	3.94
825	3.91
826	11.06
827	-4.67
828	-5.97
829	-8.85
830	-6.91
831	-1.22
832	-6.19
833	-7.6
834	-14.37
835	-5.29
836	-6.38
837	-10.36
838	-12.05
839	-22.96
840	-19.56
841	-10.48
842	-9.5
843	-12.7
844	-15.89
845	-18.19
846	-21.87
847	-22.24
848	-28.12
849	-30.79
850	-37.99
851	-35.2
852	-41.46
853	-48.29
854	-40.67
855	-37.44
856	-43.43
857	-44.16
858	-47.31
859	-44.28
860	-57.82
861	-54.26
862	-55.58
863	-56.28
864	-54.25
865	-50.01
866	-51.81
867	-48.94
868	-53.2
869	-54.9
870	-56.58
871	-56.85
872	-64.2
873	-57.28
874	-56.05
875	-64.61
876	-65.42
877	-64.19
878	-61.75
879	-55.24
880	-60.35
881	-61.34
882	-67.48
883	-62.56
884	-65.68
885	-70.88
886	-66.07
887	-66.72
888	-71.63
889	-73.53
890	-77.36
891	-71.94
892	-73.86
893	-59.56
894	-72.98
895	-69.03
896	-69.06
897	-68.98
898	-69.17
899	-71.62
900	-69.9
901	-72.76
902	-75.36
903	-73.55
904	-75.51
905	-71.2
906	-79.13
907	-75.63
908	-79.69
909	-82.06
910	-77.67
911	-80.69
912	-75.37
913	-72.29
914	-79.65
915	-86.36
916	-84.27
917	-87.61
918	-90.25
919	-83.06
920	-86.42
921	-89.2
922	-85.99
923	-92.57
924	-94.25
925	-94.46
926	-95.14
927	-95.92
928	-96.47
929	-98.09
930	-92.08
931	-100.24
932	-97.2
933	-97.34
934	-104.05
935	-99.04
936	-96.57
937	-98.96
938	-105.39
939	-98.12
940	-92.01
941	-96.08
942	-92.72
943	-97.39
944	-99.87
945	-94.51
946	-100.66
947	-99.79
948	-97.62
949	-96.28
950	-97.11
951	-103.79
952	-96.44
953	-103.86
954	-98.28
955	-98.03
956	-99.16
957	-99.39
958	-100
959	-97.85
960	-102.65
961	-101.42
962	-103.81
963	-101.39
964	-106.2
965	-109.2
966	-105.15
967	-107.34
968	-114.01
969	-105.39
970	-108.87
971	-106.84
972	-108.99
973	-111.75
974	-109.68
975	-108.97
976	-106.37
977	-106.95
978	-105.07
979	-105.61
980	-108.33
981	-108.92
982	-108.05
983	-109.37
984	-106.53
985	-110.39
986	-114.22
987	-110.25
988	-110.25
989	-111.44
990	-117.12
991	-117.47
992	-112.57
993	-110.81
994	-114.85
995	-112.78
996	-110.37
997	-118.22
998	-115.06
999	-116.82
1000	-112.03
