Data from USB2G577181__14__16-21-05-303.txt Node

Date: Tue Nov 15 16:21:05 PST 2022
User: gprabhakar
Spectrometer: USB2G57718
Scans to average: 1
Trigger mode: 4
Integration Time (sec): 1.000000E-1
Electric dark correction enabled: true
Boxcar width: 0
XAxis mode: Wavelengths
Number of Pixels in Spectrum: 651
>>>>>Begin Spectral Data<<<<<
350	6.81
351	1.5
352	-5.55
353	-3.91
354	1.15
355	1.02
356	-1.23
357	0.5
358	3.58
359	5.96
360	5.35
361	5.16
362	0.61
363	5.86
364	9.86
365	6.24
366	11.82
367	4.24
368	11.5
369	5.94
370	7.29
371	7.81
372	9.12
373	11.51
374	12.66
375	12.08
376	9.29
377	13.06
378	13.25
379	13.69
380	11.68
381	15.45
382	14.75
383	14.81
384	19.67
385	16.11
386	12.98
387	21.63
388	19.84
389	23.11
390	27.64
391	28.17
392	26.21
393	28.47
394	31.01
395	33.18
396	32.88
397	30.63
398	28.88
399	28.58
400	40.68
401	39.44
402	37.24
403	40.53
404	39.15
405	45.41
406	46.98
407	56.24
408	53.68
409	52.8
410	53.7
411	49.35
412	55.35
413	57.47
414	56.01
415	62.5
416	63.73
417	67.15
418	71.36
419	78.7
420	69.22
421	71.76
422	72.07
423	78.36
424	89.39
425	87.27
426	90.42
427	96.03
428	93.88
429	98.7
430	102.07
431	110.81
432	111.42
433	115.73
434	124.31
435	130.09
436	127.76
437	139.88
438	140
439	146.61
440	151.4
441	155.85
442	164.33
443	169.21
444	173.45
445	176.63
446	188.11
447	195.76
448	204.49
449	208.28
450	214.99
451	221.11
452	235.19
453	247.74
454	255.92
455	270.53
456	264.89
457	277.88
458	294.1
459	317.66
460	326.61
461	350.16
462	364.85
463	394.61
464	420.1
465	449.06
466	469.78
467	498.72
468	535.1
469	551.14
470	601.25
471	630.41
472	676.84
473	704
474	758.62
475	779.43
476	798.68
477	809.03
478	911.24
479	994.02
480	1001.08
481	1120.71
482	1169.12
483	1209.42
484	1222.76
485	1249
486	1301.75
487	1301.99
488	1396.02
489	1435.33
490	1467.97
491	1443.52
492	1444.91
493	1514.98
494	1574.99
495	1619.39
496	1714.63
497	1753.24
498	1805.08
499	1815.32
500	1845.48
501	1898.69
502	1943.71
503	1969.71
504	1993.56
505	2019.21
506	2061.63
507	2094.81
508	2122.57
509	2135.23
510	2178.37
511	2182.91
512	2230.65
513	2259.03
514	2297.21
515	2293.92
516	2327
517	2356.68
518	2403.64
519	2424.46
520	2474.4
521	2464.94
522	2478.61
523	2496.69
524	2530.13
525	2578.4
526	2524.74
527	2555.75
528	2564.05
529	2553.27
530	2504.33
531	2607.68
532	2595.77
533	2567.66
534	2570.42
535	2612.35
536	2580.08
537	2430.97
538	2275.14
539	2069
540	1846.38
541	1676.64
542	1537.6
543	1325.58
544	1161.25
545	1016.12
546	900.84
547	809.87
548	696
549	543.66
550	458.42
551	410.52
552	375.59
553	364.36
554	338.24
555	317.25
556	294.75
557	282.55
558	280.02
559	256.49
560	244.83
561	234.19
562	224.12
563	212.92
564	212.15
565	191.44
566	184.83
567	169.97
568	168
569	159.83
570	157.26
571	150.89
572	158.24
573	143.84
574	139.8
575	130
576	119.54
577	122.92
578	119.93
579	117.38
580	114.89
581	110.02
582	110.97
583	101.65
584	101.86
585	102.94
586	96.46
587	86.03
588	88.01
589	85.78
590	86.75
591	83.69
592	80.92
593	77.35
594	74.99
595	72.69
596	68.24
597	67
598	65.31
599	62.72
600	64.73
601	57.08
602	61.53
603	57.37
604	49.21
605	54.02
606	58.95
607	49.32
608	43.64
609	42.44
610	50.33
611	42.14
612	41.48
613	40.94
614	40.89
615	35.86
616	31.53
617	34.35
618	32.88
619	27.1
620	30.43
621	27.84
622	22.34
623	22.46
624	24.81
625	19.93
626	16.83
627	19.09
628	19.64
629	14.67
630	7.76
631	16.88
632	16.57
633	14.63
634	8.84
635	6.65
636	12.11
637	2.87
638	8.42
639	10.8
640	11.25
641	4.72
642	1
643	4.12
644	5.2
645	4.12
646	-0.9
647	-3.5
648	-7.24
649	2.64
650	-3.27
651	-7.19
652	-4.32
653	-3.41
654	-4.91
655	-6.38
656	-4.62
657	-3.79
658	2.17
659	-6.34
660	-16.63
661	-11.53
662	-12.95
663	-12.24
664	-12.71
665	-18.28
666	-15.11
667	-13.7
668	-18.66
669	-12.98
670	-16.5
671	-9.93
672	-19.91
673	-21.06
674	-21.21
675	-21.5
676	-20.65
677	-20.13
678	-14.23
679	-15.52
680	-23.28
681	-18.39
682	-24.85
683	-26.25
684	-20.68
685	-20.97
686	-19.45
687	-19.86
688	-21.55
689	-25.72
690	-26.54
691	-25.01
692	-24.91
693	-18.89
694	-26.01
695	-22.79
696	-29.58
697	-28.44
698	-26.23
699	-24.32
700	-31.76
701	-28.61
702	-26.48
703	-29.43
704	-29.2
705	-30.37
706	-32.65
707	-30.44
708	-28.27
709	-28.36
710	-29.49
711	-28.96
712	-31.65
713	-33.67
714	-31.01
715	-34.3
716	-34.77
717	-32.25
718	-31.69
719	-33.65
720	-30.67
721	-36.65
722	-31.88
723	-30.76
724	-32.88
725	-34.57
726	-33.41
727	-30.91
728	-34.59
729	-36.26
730	-31.97
731	-34.42
732	-33.29
733	-36.66
734	-32.34
735	-35.93
736	-36.07
737	-33.69
738	-34.81
739	-34.86
740	-38.02
741	-36.83
742	-38.74
743	-39.23
744	-35.43
745	-39.85
746	-38.2
747	-36.68
748	-39.44
749	-40.47
750	-38.4
751	-36.96
752	-38.22
753	-37.35
754	-39.48
755	-39
756	-39.76
757	-41.59
758	-37.16
759	-40.88
760	-45.93
761	-44.32
762	-38.53
763	-41.81
764	-37.77
765	-39.24
766	-43.12
767	-41.64
768	-41.62
769	-38.16
770	-44.67
771	-44.74
772	-39.87
773	-40.91
774	-42.8
775	-40.78
776	-42.17
777	-42.77
778	-42.17
779	-41.09
780	-46.31
781	-44.54
782	-40.8
783	-44.73
784	-41.94
785	-49.67
786	-43.81
787	-45.33
788	-47.91
789	-44.72
790	-44.51
791	-47.54
792	-44.88
793	-47.89
794	-46.88
795	-48.53
796	-45.72
797	-45.33
798	-44.03
799	-47.49
800	-47.82
801	-47.93
802	-49.49
803	-45.26
804	-49.25
805	-43.49
806	-49.3
807	-44.38
808	-48.91
809	-44.19
810	-45.01
811	-52.21
812	-47.08
813	-47.45
814	-51.06
815	-47.93
816	-45.91
817	-47.99
818	-51.17
819	-49.91
820	-50.45
821	-53.94
822	-49.99
823	-49.91
824	-47.7
825	-47.84
826	-49.63
827	-50.89
828	-49.81
829	-51.67
830	-52.45
831	-50.73
832	-50.83
833	-51.63
834	-50.94
835	-53.77
836	-51.56
837	-49.45
838	-50.2
839	-51.24
840	-54.56
841	-49.07
842	-53.43
843	-54.02
844	-52.48
845	-54.38
846	-51.64
847	-53.95
848	-51.58
849	-52.13
850	-51.59
851	-48.21
852	-51.93
853	-54.84
854	-49.27
855	-50.23
856	-55.85
857	-55.05
858	-52.64
859	-50.72
860	-52.67
861	-52.94
862	-54.51
863	-54.82
864	-54.37
865	-52.52
866	-52.23
867	-52.2
868	-56.03
869	-56.1
870	-54.38
871	-52.53
872	-54.05
873	-57.23
874	-53.71
875	-52.18
876	-54.94
877	-52.72
878	-52.46
879	-53.73
880	-54.67
881	-56.73
882	-53.15
883	-55.76
884	-58.24
885	-53.24
886	-53.06
887	-56.07
888	-54.29
889	-53.67
890	-54.9
891	-57.53
892	-58.98
893	-53.84
894	-52.73
895	-53.17
896	-56.05
897	-54.92
898	-57.1
899	-58.99
900	-55.75
901	-56.68
902	-53.61
903	-57.8
904	-54.39
905	-56.54
906	-59.38
907	-57.05
908	-57.91
909	-56.93
910	-57.85
911	-54.2
912	-56.95
913	-56.71
914	-58.37
915	-56.44
916	-56.28
917	-56.02
918	-55.44
919	-58.4
920	-60.84
921	-57.33
922	-57.2
923	-55.89
924	-61.78
925	-55.95
926	-59.95
927	-58.71
928	-59.83
929	-60.06
930	-57.76
931	-59.59
932	-57.76
933	-57.94
934	-59.62
935	-60.04
936	-56.48
937	-55.52
938	-57.9
939	-60.79
940	-57.95
941	-55.79
942	-53.89
943	-58.87
944	-58.34
945	-56.77
946	-60.42
947	-63.71
948	-59.54
949	-57.72
950	-57.8
951	-61.86
952	-59.88
953	-58.67
954	-57.11
955	-59.71
956	-56.67
957	-59.2
958	-61.53
959	-56.43
960	-58.1
961	-58.06
962	-59.35
963	-59.9
964	-60.23
965	-62.93
966	-57.04
967	-60.07
968	-62.35
969	-58.15
970	-59.33
971	-58.04
972	-61.55
973	-57.29
974	-58.95
975	-60.54
976	-61.38
977	-58.56
978	-61.52
979	-59.97
980	-61.44
981	-61.65
982	-58.69
983	-60
984	-60.34
985	-60.9
986	-60.32
987	-61.02
988	-63.49
989	-61.23
990	-62.71
991	-59.13
992	-60.24
993	-59.2
994	-58.83
995	-61.72
996	-60.89
997	-60.19
998	-62.05
999	-61.91
1000	-61.77
