Data from USB2G577181__15__16-23-48-929.txt Node

Date: Tue Nov 15 16:23:48 PST 2022
User: gprabhakar
Spectrometer: USB2G57718
Scans to average: 1
Trigger mode: 4
Integration Time (sec): 1.000000E-1
Electric dark correction enabled: true
Boxcar width: 0
XAxis mode: Wavelengths
Number of Pixels in Spectrum: 651
>>>>>Begin Spectral Data<<<<<
350	1.61
351	-3.33
352	-0.95
353	2.42
354	0.25
355	1.52
356	-1.96
357	0.8
358	-2.46
359	2.12
360	0.56
361	5.35
362	5.88
363	1.02
364	6.31
365	3.19
366	0.05
367	4.13
368	8.51
369	6.01
370	2.82
371	7.28
372	3.5
373	8.99
374	6.91
375	7.33
376	7.38
377	4.13
378	7.45
379	7.26
380	7.79
381	4.45
382	3.48
383	7.73
384	7.68
385	13.97
386	14.45
387	14.69
388	14.17
389	10.45
390	14.01
391	10.78
392	16.55
393	13.92
394	15.73
395	15.77
396	17.93
397	20.83
398	19.06
399	17.03
400	16.05
401	21.52
402	20.11
403	17.81
404	26.86
405	22.56
406	25.17
407	23.25
408	23.27
409	24.96
410	24.82
411	26.64
412	26.49
413	29.97
414	29.82
415	31.04
416	28.3
417	31.03
418	39.88
419	29.4
420	34.19
421	33.64
422	35.43
423	34.42
424	39.34
425	34.32
426	37.22
427	43.16
428	40.16
429	40.32
430	39.54
431	46.48
432	50.13
433	49.53
434	48.06
435	46.74
436	53.97
437	52.95
438	55.36
439	58.19
440	66.02
441	64.65
442	62.44
443	64.03
444	67.9
445	64.58
446	72.08
447	71.79
448	65.31
449	75.83
450	72.89
451	76.75
452	79.77
453	74.55
454	85.69
455	85.91
456	86.6
457	82.99
458	86.42
459	98.67
460	98.82
461	98.53
462	99.17
463	105.78
464	111.05
465	112.42
466	110.61
467	124.22
468	128.86
469	129.79
470	137.3
471	145.56
472	149.59
473	157.21
474	160.66
475	162.32
476	165.06
477	168.37
478	190.46
479	199.78
480	204.85
481	218.41
482	230.74
483	242.12
484	240.36
485	250.2
486	266.13
487	272.4
488	292.63
489	308.52
490	312.14
491	315.2
492	320.97
493	342.03
494	372.12
495	395
496	415.35
497	441.87
498	468.83
499	485.92
500	513.19
501	519.52
502	541.03
503	573.06
504	578.42
505	606.94
506	645
507	645.1
508	663.82
509	690.41
510	708.12
511	735.45
512	757.45
513	764.46
514	796.91
515	813.23
516	843.21
517	885.83
518	885.1
519	907.5
520	940.61
521	961.62
522	991.07
523	996.82
524	1029.6
525	1058.52
526	1092.47
527	1139.65
528	1135
529	1177.71
530	1166.33
531	1234.85
532	1278.91
533	1281.34
534	1324.96
535	1380.89
536	1407.25
537	1431.57
538	1490.86
539	1544.16
540	1579.49
541	1644.63
542	1694.98
543	1716.34
544	1758.59
545	1789.66
546	1821.28
547	1805.2
548	1816.67
549	1885.47
550	1951.1
551	2026.31
552	2169.2
553	2304.08
554	2381.92
555	2449.4
556	2482.01
557	2541.75
558	2479.31
559	2427.49
560	2358.49
561	2541.76
562	2579.01
563	2582.21
564	2616.56
565	2594.02
566	2621.03
567	2548.2
568	2414.18
569	2188.44
570	2033.58
571	1862.03
572	1543.25
573	1123.22
574	691.09
575	425.84
576	347.66
577	306.43
578	280.32
579	293.22
580	263.72
581	246.02
582	237.42
583	201.26
584	193.93
585	181.17
586	173.94
587	157.62
588	139.79
589	137.18
590	127.67
591	118.98
592	114.49
593	108.95
594	104.38
595	106.12
596	98.16
597	104.44
598	96.78
599	86.78
600	83.91
601	79.1
602	85.23
603	78.24
604	77.48
605	68.6
606	70.41
607	66.68
608	63.89
609	66.41
610	64.2
611	63.45
612	60.78
613	55.08
614	47.64
615	53.75
616	53.85
617	50.39
618	45.27
619	43.22
620	44.55
621	42.24
622	39.74
623	41.18
624	37.84
625	39.64
626	34.45
627	33.51
628	34.44
629	29.85
630	28.49
631	30.69
632	30.23
633	31.3
634	31.1
635	24.4
636	24.59
637	21.83
638	28.85
639	23.56
640	23.69
641	24.13
642	17.54
643	23.26
644	17.92
645	16.62
646	14.42
647	19.08
648	16.16
649	14.56
650	15.01
651	15.74
652	13.11
653	14.8
654	12.28
655	10.37
656	9.12
657	11.16
658	15.35
659	11.98
660	7.84
661	11.56
662	4.33
663	4.43
664	9.02
665	7.82
666	1.96
667	4.34
668	6.36
669	5.85
670	9.08
671	1.39
672	4.35
673	-0.7
674	0.57
675	1.58
676	1.57
677	1.47
678	2.13
679	2.02
680	-0.58
681	-2.85
682	-1.59
683	-0.32
684	-4.38
685	-0.84
686	-4.39
687	-2.53
688	-2.69
689	-0.43
690	-1.82
691	-3.1
692	-2.72
693	-5.62
694	-5.6
695	-5.59
696	-6.61
697	-5.29
698	-3.05
699	-4.96
700	-3.84
701	-6.15
702	-6.4
703	-5.73
704	-7.34
705	-3.58
706	-4.4
707	-7.27
708	-8.12
709	-7.18
710	-10.54
711	-7.8
712	-11.32
713	-8.54
714	-8.99
715	-7.44
716	-5.77
717	-8.43
718	-8.59
719	-8.63
720	-8.32
721	-6.99
722	-8.86
723	-10.1
724	-7.37
725	-12.33
726	-10.04
727	-11.87
728	-9.01
729	-5.29
730	-9
731	-11.42
732	-8.08
733	-9.31
734	-9.21
735	-10.59
736	-13.4
737	-10.49
738	-14.58
739	-10.58
740	-10.63
741	-10.56
742	-14.35
743	-13.2
744	-11.44
745	-9.82
746	-8.8
747	-13.18
748	-9.28
749	-10.52
750	-12.34
751	-14.52
752	-14.45
753	-11.84
754	-7.53
755	-11.08
756	-15.97
757	-9.67
758	-14.54
759	-14.43
760	-13.66
761	-13.49
762	-16.5
763	-15.57
764	-14.04
765	-13.85
766	-9.27
767	-14.65
768	-19.78
769	-15.48
770	-13.37
771	-14.97
772	-15.58
773	-14.58
774	-13.51
775	-16.99
776	-15.02
777	-15.84
778	-14.22
779	-16.42
780	-13.32
781	-15.71
782	-17.46
783	-16.51
784	-14.55
785	-13.58
786	-14.42
787	-13.27
788	-16.04
789	-13.6
790	-18.66
791	-19.66
792	-15.58
793	-12.54
794	-15.96
795	-14.43
796	-14.34
797	-13.57
798	-18.06
799	-18.99
800	-15.92
801	-16.69
802	-20.05
803	-23.87
804	-15.01
805	-16.45
806	-19.84
807	-16.35
808	-15.57
809	-14.2
810	-11.35
811	-14.87
812	-18.98
813	-17.96
814	-16.84
815	-19.46
816	-20.93
817	-15.21
818	-20.24
819	-14.77
820	-15.64
821	-17.61
822	-17.95
823	-15.77
824	-17.52
825	-16.68
826	-20.91
827	-19.63
828	-16.3
829	-18.29
830	-16.51
831	-15.18
832	-17.55
833	-18.7
834	-19.26
835	-14.96
836	-20.85
837	-17.65
838	-18.21
839	-17.37
840	-19.7
841	-18.88
842	-18.91
843	-18.68
844	-17.77
845	-19.06
846	-21.32
847	-20.68
848	-17.12
849	-19.95
850	-19.52
851	-18.17
852	-17.8
853	-19.6
854	-19.82
855	-19.36
856	-20.54
857	-17.56
858	-20.37
859	-22.08
860	-20.56
861	-18.1
862	-15.11
863	-17.23
864	-20.49
865	-18.79
866	-20.46
867	-21.11
868	-21.46
869	-20.48
870	-22.11
871	-21.78
872	-19.86
873	-21.29
874	-17.96
875	-17.81
876	-20.6
877	-21.29
878	-21.87
879	-18.63
880	-19.64
881	-23.1
882	-19.84
883	-20.62
884	-21.41
885	-20.68
886	-27.56
887	-23.46
888	-23.97
889	-24.46
890	-19.61
891	-23.22
892	-22.92
893	-20.97
894	-20.95
895	-24.12
896	-22.14
897	-25.92
898	-22.7
899	-23.23
900	-22.49
901	-21.58
902	-24.56
903	-25.44
904	-21.96
905	-22.04
906	-19.47
907	-21.9
908	-19.71
909	-23.4
910	-22.82
911	-22.54
912	-22.78
913	-24.41
914	-20.66
915	-22.68
916	-21.01
917	-23.56
918	-22.63
919	-22.21
920	-16.51
921	-19.74
922	-22.15
923	-22.64
924	-22.76
925	-21.59
926	-22.6
927	-22.16
928	-22.58
929	-22.72
930	-23.74
931	-23.52
932	-26.02
933	-24.59
934	-25.73
935	-21.19
936	-22.76
937	-23.27
938	-23.58
939	-21.6
940	-22.1
941	-25.72
942	-20.25
943	-25.89
944	-23.13
945	-24.33
946	-23.5
947	-22.56
948	-25.68
949	-23.3
950	-23.59
951	-20.82
952	-24.51
953	-24.6
954	-22.32
955	-22.41
956	-23.47
957	-26.8
958	-21.03
959	-23.95
960	-24.05
961	-24.55
962	-21.04
963	-25.59
964	-22.78
965	-22.46
966	-21.58
967	-23.64
968	-26.4
969	-24.36
970	-27.71
971	-23.13
972	-23.18
973	-25.31
974	-25.21
975	-26.74
976	-24.42
977	-23.63
978	-23.81
979	-28.54
980	-27.41
981	-27.43
982	-25.24
983	-26.51
984	-24.78
985	-23.59
986	-25.03
987	-24.57
988	-25.15
989	-25.29
990	-26.5
991	-25.12
992	-23.42
993	-26.6
994	-24.63
995	-22.98
996	-24.59
997	-23.18
998	-25.35
999	-22.76
1000	-25.51
