Data from USB2G577181__22__16-34-01-537.txt Node

Date: Tue Nov 15 16:34:01 PST 2022
User: gprabhakar
Spectrometer: USB2G57718
Scans to average: 1
Trigger mode: 4
Integration Time (sec): 1.000000E-1
Electric dark correction enabled: true
Boxcar width: 0
XAxis mode: Wavelengths
Number of Pixels in Spectrum: 651
>>>>>Begin Spectral Data<<<<<
350	6.11
351	-1.33
352	-4.14
353	-2.13
354	1.49
355	-0.18
356	-1.81
357	0.54
358	1.36
359	3.46
360	3.49
361	2.81
362	7.09
363	6.46
364	6.12
365	4.25
366	7.6
367	4.17
368	7.84
369	5.85
370	7.36
371	9.6
372	5.88
373	9.16
374	9.63
375	7.69
376	9.88
377	9.35
378	7.89
379	9.76
380	9.75
381	7.31
382	15.73
383	14.05
384	10.86
385	12.16
386	15.49
387	19.31
388	10.98
389	13.9
390	7.44
391	14.67
392	8.94
393	11.3
394	16.17
395	13.56
396	15.45
397	16.65
398	13.76
399	11.81
400	14.69
401	13.48
402	20.3
403	16.57
404	16.44
405	16.56
406	17.67
407	14.58
408	19.88
409	15.55
410	17.7
411	20.11
412	20.16
413	20.89
414	20.7
415	22.15
416	23.81
417	21.35
418	24.11
419	24.02
420	27.58
421	28.2
422	26.9
423	26.14
424	29.64
425	29.86
426	31.35
427	29.5
428	35.64
429	35.9
430	34.79
431	37.92
432	32.96
433	36.77
434	43
435	43.92
436	43.39
437	46.28
438	44.93
439	47.22
440	46.55
441	50.75
442	50.59
443	55.8
444	55.86
445	57.61
446	56.6
447	60.51
448	65.28
449	61.4
450	67.53
451	69
452	73.9
453	78.32
454	75.12
455	75.36
456	75.32
457	81.16
458	87.86
459	89.07
460	88.22
461	88.29
462	99.08
463	103.48
464	97.57
465	108.86
466	113.06
467	117.41
468	120.85
469	123.52
470	140.86
471	148.52
472	153.01
473	158.4
474	176.62
475	186.82
476	187.24
477	200.6
478	231.85
479	257.75
480	288.31
481	364.34
482	420.86
483	494.81
484	570.93
485	661.64
486	783.47
487	814.88
488	956.34
489	1075.04
490	1170.07
491	1166.72
492	1224.56
493	1319.57
494	1478.32
495	1620.53
496	1724.8
497	1846.84
498	1936.13
499	2006.82
500	2064.04
501	2091
502	2150.74
503	2184.11
504	2215.1
505	2248.42
506	2299.5
507	2343.07
508	2373.4
509	2402.12
510	2451.5
511	2445.32
512	2453.36
513	2447.57
514	2477.77
515	2445.46
516	2480.39
517	2503.29
518	2528.44
519	2523.79
520	2533.93
521	2512.61
522	2490.22
523	2473.57
524	2453.33
525	2519.17
526	2539.56
527	2573.37
528	2578.7
529	2538.16
530	2609.3
531	2613.14
532	2572.61
533	2524.95
534	2680.75
535	2684.8
536	2646.83
537	2672.84
538	2687.5
539	2659.54
540	2653.76
541	2634.72
542	2613.18
543	2582.89
544	2562.03
545	2561.01
546	2483.72
547	2479.53
548	2510.02
549	2486.19
550	2481.21
551	2458.18
552	2442.1
553	2391.58
554	2364.52
555	2335.03
556	2292.93
557	2194.62
558	2006.76
559	1734.11
560	1464.22
561	1218.24
562	1026.48
563	885.86
564	777.9
565	686.54
566	615.89
567	553.53
568	490.54
569	440.83
570	418.51
571	377.94
572	345.82
573	309.34
574	279.93
575	259.22
576	243.09
577	216.96
578	203.66
579	194.01
580	177.91
581	167.4
582	165.19
583	153.77
584	156.74
585	136.79
586	140.1
587	128.25
588	125.13
589	115.17
590	124.06
591	111.64
592	110.07
593	106.35
594	106.21
595	100.22
596	98.54
597	92.8
598	87.58
599	86.11
600	88.89
601	84.13
602	81.74
603	78.87
604	70.69
605	70.71
606	70.62
607	71.22
608	70.11
609	62.57
610	72.95
611	61.83
612	58.89
613	60.5
614	57.15
615	48.7
616	58.07
617	51.59
618	50.56
619	48.19
620	45.15
621	48
622	49.79
623	46.42
624	46.89
625	51.42
626	43.61
627	38.8
628	40.72
629	39.76
630	37.78
631	34.83
632	35.39
633	36.28
634	33.21
635	37.67
636	34.96
637	33.14
638	31.82
639	32.29
640	25.83
641	28.42
642	29.02
643	34.37
644	25.54
645	28.94
646	27.8
647	24.79
648	24.43
649	24.5
650	26.58
651	22.21
652	18.18
653	22.76
654	19.93
655	20.86
656	24.11
657	17.96
658	19.02
659	22.6
660	19.68
661	18.42
662	17.4
663	16.48
664	12.06
665	17.94
666	15.8
667	14.28
668	16.62
669	14.54
670	14.08
671	14.92
672	11.85
673	11.04
674	13.41
675	8.71
676	7.51
677	6.05
678	12.71
679	9.36
680	8.49
681	5.83
682	11.56
683	7.97
684	6.72
685	6.1
686	11.38
687	10.04
688	5.88
689	7.99
690	6.54
691	6.67
692	6.81
693	3.89
694	3.86
695	8.13
696	5.1
697	4.29
698	6.54
699	4.02
700	6.61
701	0.78
702	7.38
703	5.73
704	2.93
705	2.38
706	5.13
707	1.49
708	5.76
709	1.44
710	3.58
711	-0.2
712	3.57
713	4.05
714	4.06
715	2.69
716	0.29
717	0.41
718	-0.93
719	3.04
720	2.03
721	-2.42
722	0.61
723	0.29
724	3.3
725	1.62
726	-4.64
727	3.12
728	-5.06
729	0.8
730	-0.6
731	-4.65
732	-0.29
733	-4.05
734	-0.58
735	-0.66
736	-3.44
737	-1.91
738	-6.09
739	1.87
740	-0.21
741	-1.12
742	-3.18
743	-4.77
744	0.32
745	0.02
746	-3.67
747	-6.52
748	-1.48
749	-5.06
750	-4.28
751	-2.05
752	-1.81
753	-4.65
754	-5.85
755	-6.4
756	-4.39
757	1.79
758	-8.19
759	-1.38
760	-7.06
761	-2.12
762	-6.97
763	-10.9
764	-5.41
765	-3.19
766	-9.32
767	-7.24
768	-9.15
769	-8.08
770	-7.66
771	-9.64
772	-7.01
773	-9.15
774	-7.94
775	-7.6
776	-9.74
777	-4.91
778	-4.55
779	-9.53
780	-7.44
781	-7.1
782	-10.31
783	-5.47
784	-11.07
785	-8.25
786	-7.88
787	-7.33
788	-7.27
789	-7.48
790	-11.25
791	-8.16
792	-3.86
793	-8.14
794	-11.03
795	-10.78
796	-11.46
797	-5.77
798	-9.31
799	-7.85
800	-12.53
801	-8.98
802	-6.24
803	-10.88
804	-8
805	-9.77
806	-9.51
807	-8.15
808	-9.13
809	-11.27
810	-11.33
811	-11.99
812	-11.64
813	-10.23
814	-11.77
815	-7.18
816	-7.73
817	-8.82
818	-12.35
819	-14.38
820	-12.15
821	-9.12
822	-13.82
823	-8.12
824	-9.65
825	-13.23
826	-6.7
827	-11.08
828	-14.47
829	-12.46
830	-9.65
831	-10.61
832	-12.18
833	-11.19
834	-15.27
835	-11.64
836	-14.19
837	-11.17
838	-12.09
839	-16.17
840	-14.7
841	-13.24
842	-11.9
843	-13.34
844	-11.11
845	-13.3
846	-15.37
847	-14.02
848	-13.86
849	-16.39
850	-11.84
851	-14.6
852	-11.97
853	-17.65
854	-14.49
855	-14.48
856	-14.11
857	-17.76
858	-12.92
859	-14
860	-13.44
861	-13.34
862	-14.92
863	-13.53
864	-11.06
865	-14.54
866	-15.25
867	-17.89
868	-14.46
869	-14.43
870	-14.36
871	-17.19
872	-14.53
873	-13.06
874	-14.73
875	-10.67
876	-18.15
877	-18.72
878	-13.09
879	-14.3
880	-18.73
881	-19.94
882	-14.84
883	-18.14
884	-17.06
885	-15.14
886	-15.83
887	-15.98
888	-17.74
889	-14.3
890	-16.14
891	-18.32
892	-13.26
893	-17.18
894	-17.69
895	-16.55
896	-14.11
897	-13.33
898	-17.1
899	-18.99
900	-14.53
901	-13.4
902	-16.94
903	-15.53
904	-18.97
905	-16.39
906	-18.37
907	-18.87
908	-15.17
909	-18.39
910	-17.5
911	-17.01
912	-17.8
913	-16.63
914	-15.56
915	-17.29
916	-17.43
917	-17.91
918	-19.35
919	-14.77
920	-14.21
921	-19.03
922	-20.93
923	-20.01
924	-19.28
925	-18.04
926	-17.96
927	-15.08
928	-18.21
929	-24.02
930	-18.62
931	-16.46
932	-16.04
933	-15.19
934	-20.16
935	-21.35
936	-14.24
937	-16.65
938	-19.14
939	-18.75
940	-17.91
941	-15.9
942	-12.84
943	-23.09
944	-19.87
945	-18.28
946	-17.5
947	-19.39
948	-19.95
949	-19
950	-21.83
951	-18.98
952	-20.18
953	-18.46
954	-19.73
955	-18.48
956	-17.11
957	-19.65
958	-20.28
959	-17.63
960	-20.24
961	-22.14
962	-16.66
963	-21.14
964	-18.56
965	-22.11
966	-18.48
967	-17.92
968	-17.81
969	-20.41
970	-21.65
971	-16.45
972	-16.86
973	-21
974	-21.26
975	-20.6
976	-21.28
977	-19.15
978	-17.86
979	-16.32
980	-20.6
981	-19.34
982	-21.67
983	-21.19
984	-23.97
985	-19.13
986	-19.56
987	-21.06
988	-23.22
989	-19.09
990	-20.49
991	-23.33
992	-20.09
993	-18.07
994	-21.16
995	-21.94
996	-20.14
997	-21.99
998	-19.18
999	-23.26
1000	-21.55
