Data from USB2G577181__23__16-34-28-837.txt Node

Date: Tue Nov 15 16:34:28 PST 2022
User: gprabhakar
Spectrometer: USB2G57718
Scans to average: 1
Trigger mode: 4
Integration Time (sec): 1.000000E-1
Electric dark correction enabled: true
Boxcar width: 0
XAxis mode: Wavelengths
Number of Pixels in Spectrum: 651
>>>>>Begin Spectral Data<<<<<
350	6.18
351	2.39
352	-1.17
353	2.14
354	-9.54
355	-0.78
356	0.33
357	3.22
358	2.59
359	7.71
360	8.81
361	3.23
362	6.46
363	2.99
364	5.86
365	8.13
366	7.93
367	8.03
368	9.7
369	7.24
370	5.86
371	8.21
372	8.05
373	8.68
374	10.65
375	12.22
376	11.55
377	10.08
378	8.16
379	11.77
380	14.68
381	13.09
382	8.22
383	9.27
384	15.39
385	13.55
386	10.25
387	15.58
388	12.48
389	16.13
390	14.12
391	21.88
392	11.07
393	15.76
394	15.67
395	22.02
396	16.51
397	19.19
398	16.09
399	18.82
400	21.61
401	17.92
402	15.16
403	20.54
404	21.35
405	19.72
406	22.82
407	25.63
408	16.39
409	22.99
410	17.39
411	21.26
412	23.49
413	26.18
414	25.34
415	24.11
416	25.55
417	26.38
418	27.01
419	22.45
420	28.78
421	24.5
422	27.21
423	30.19
424	31.19
425	29.22
426	26.06
427	28.42
428	32.06
429	33.01
430	33.37
431	34.18
432	37.45
433	36.24
434	35.21
435	33.59
436	42.33
437	40.57
438	40.83
439	40.61
440	41.13
441	43
442	41
443	41.33
444	42.59
445	43.14
446	46.79
447	43.04
448	48.22
449	44.38
450	48.56
451	45.99
452	51.05
453	53.48
454	47.64
455	54.76
456	52.22
457	57.39
458	58.14
459	64.06
460	66.37
461	62.05
462	64.53
463	69.2
464	65.88
465	66.11
466	69.52
467	72.21
468	72.45
469	67.55
470	76.07
471	81.58
472	87.23
473	89.05
474	88.22
475	87.45
476	97.74
477	96.63
478	96.99
479	101.12
480	108.11
481	114.98
482	122.43
483	123.35
484	134.71
485	132.61
486	142.77
487	141.09
488	148.79
489	157.01
490	158.98
491	167.35
492	170.48
493	180.36
494	202.79
495	221.24
496	231.56
497	250.86
498	270.83
499	285.63
500	320.74
501	354.71
502	406.18
503	483.66
504	617.96
505	798.69
506	998.81
507	1157.47
508	1335.28
509	1607.04
510	1786.31
511	1951.12
512	2076.5
513	2214.38
514	2363.31
515	2444.38
516	2528.13
517	2520.09
518	2663.05
519	2792.3
520	2864.76
521	2935.24
522	3011.61
523	2995.27
524	3039.11
525	3078.09
526	3095.1
527	3130.84
528	3131.79
529	3165.63
530	3191.96
531	3232.38
532	3219.98
533	3164.39
534	3260.39
535	3280.34
536	3302.94
537	3319.18
538	3346.65
539	3355.55
540	3326.01
541	3333.02
542	3364.09
543	3388.71
544	3408.37
545	3402.5
546	3395.53
547	3356.11
548	3294.13
549	3247.5
550	3235.82
551	3299.31
552	3364.2
553	3394.66
554	3383.2
555	3364.36
556	3373.4
557	3375.68
558	3359.2
559	3379.02
560	3391.96
561	3367.78
562	3376.45
563	3349.27
564	3322.43
565	3314.15
566	3253.1
567	3215.08
568	3164.68
569	3122.23
570	3052.53
571	3050.36
572	3000.09
573	2987.23
574	2958.45
575	2920.2
576	2759.52
577	2611.59
578	2502.18
579	2325.55
580	2052.89
581	1789.32
582	1628.04
583	1356.05
584	1116.91
585	916.45
586	792.8
587	703.62
588	625.05
589	569.81
590	515.14
591	486.95
592	449.08
593	410.28
594	373.09
595	347.92
596	324.29
597	295.27
598	267.88
599	254.5
600	230.57
601	220.28
602	208.75
603	210.82
604	199.38
605	174.34
606	165.77
607	162.37
608	152.73
609	147.45
610	146.97
611	135.2
612	128.25
613	126.43
614	124.82
615	116.77
616	109.51
617	111.93
618	110.89
619	107.64
620	96.84
621	96.46
622	96.4
623	92.5
624	92.71
625	84.54
626	82.69
627	82.09
628	80.35
629	75.61
630	76.51
631	79.29
632	71.77
633	68.05
634	66.3
635	70.21
636	70.07
637	68.68
638	65.39
639	59.66
640	57.68
641	60.65
642	55.49
643	54.76
644	53.96
645	56.21
646	54.05
647	51.94
648	45.66
649	46.36
650	48.24
651	47.13
652	43.59
653	41.95
654	45.37
655	43.53
656	44.1
657	37.1
658	41.15
659	36.01
660	36.55
661	40.47
662	35.46
663	37.41
664	33.52
665	33.99
666	30.6
667	29.79
668	34
669	30.42
670	31.08
671	25.1
672	31.18
673	25.14
674	25.06
675	29.06
676	29.86
677	28.25
678	26.09
679	24.65
680	28.92
681	27.58
682	22.21
683	19.83
684	19.9
685	18.2
686	17.65
687	19.75
688	21.31
689	15.04
690	19.72
691	17.88
692	19.28
693	22.16
694	15.12
695	18.02
696	18.25
697	16.15
698	12.83
699	17.68
700	12.04
701	16.78
702	14.07
703	15.74
704	15.57
705	12.05
706	13.09
707	11.94
708	14.82
709	13.39
710	15.88
711	13.01
712	7.45
713	15.49
714	12.7
715	13.07
716	10.86
717	11.87
718	9.4
719	11.92
720	11.79
721	8.79
722	6.6
723	9.91
724	5.53
725	12.81
726	6.65
727	8.85
728	9.94
729	6.31
730	10.7
731	6.93
732	8.78
733	8.33
734	5.54
735	7.32
736	8.16
737	4.38
738	4.12
739	8.13
740	11.17
741	7.11
742	6.99
743	8.74
744	4.59
745	4.56
746	3.3
747	5.93
748	6.27
749	7.85
750	2.77
751	1.43
752	3.39
753	4.22
754	2.96
755	7.47
756	6.44
757	6.23
758	-1.15
759	4.26
760	2.1
761	4.01
762	1.13
763	3.99
764	4.78
765	2.21
766	4.32
767	2.4
768	-0.63
769	2.39
770	3.73
771	1.6
772	3.15
773	1.14
774	1.25
775	1.14
776	1.72
777	3.01
778	2.89
779	-2.33
780	-0.18
781	1.76
782	-3.76
783	-1.7
784	0.12
785	-2.35
786	-4.71
787	-1.55
788	2.32
789	-0.93
790	0
791	-4.71
792	0.43
793	-1.83
794	0.96
795	1.16
796	0.68
797	2.05
798	0.96
799	-1.68
800	-0.41
801	-0.84
802	3.24
803	0.84
804	-4.89
805	-4.79
806	-0.34
807	-4.18
808	-4.86
809	-0.42
810	-1.74
811	-4.1
812	-6.45
813	1.75
814	-2.41
815	-4.08
816	-1.66
817	-2.05
818	-2.5
819	-3.76
820	0.87
821	-4.87
822	-2.42
823	-2.16
824	-5.18
825	-2.39
826	-3.1
827	-1.75
828	-5.94
829	-1.8
830	-2.37
831	-2.55
832	-1.14
833	-3.65
834	-2.74
835	-5.19
836	0.1
837	-1.98
838	-5.05
839	-5.57
840	-2.72
841	-5.24
842	-6.98
843	-4.28
844	-5.24
845	-5.05
846	-7.26
847	-6.67
848	-4.64
849	-4.82
850	-6.24
851	-6.55
852	-2.85
853	2.86
854	-8.49
855	-6.97
856	-4.83
857	-4.04
858	-8.19
859	-6.52
860	-10.76
861	-5.44
862	-5.74
863	-2.72
864	-3.49
865	-8.59
866	-10.01
867	-8.22
868	-6.76
869	-4.45
870	-6.69
871	-4.38
872	-8.94
873	-4.88
874	-4.9
875	-7.14
876	-5.86
877	-5.9
878	-7.44
879	-8.21
880	-10.73
881	-5.37
882	-8.36
883	-6.61
884	-10.43
885	-7.47
886	-5.38
887	-10.58
888	-9.71
889	-7.55
890	-10.85
891	-8.81
892	-10.93
893	-9.98
894	-11.22
895	-9.19
896	-10.33
897	-12.68
898	-8.24
899	-5.67
900	-9.99
901	-8.95
902	-9.22
903	-7.92
904	-7.73
905	-5.84
906	-5.16
907	-8.92
908	-8.39
909	-10.99
910	-12.39
911	-6.49
912	-5.75
913	-8.06
914	-9.7
915	-5.39
916	-8.21
917	-12
918	-8.02
919	-8.11
920	-12.86
921	-6.87
922	-7.58
923	-9.88
924	-11.8
925	-10.02
926	-11.12
927	-11.87
928	-10.82
929	-13.31
930	-13.28
931	-9.28
932	-9.92
933	-9.81
934	-12.74
935	-10.72
936	-10.37
937	-12.29
938	-9.87
939	-8.63
940	-8.11
941	-10.56
942	-12.16
943	-12.79
944	-11.64
945	-9.76
946	-10.86
947	-9.82
948	-9.08
949	-13.95
950	-8.88
951	-8.92
952	-7.79
953	-12.06
954	-8.96
955	-9.82
956	-11.39
957	-9.6
958	-13.48
959	-10.33
960	-10.08
961	-12.35
962	-9.29
963	-9.85
964	-9.97
965	-13.93
966	-11.88
967	-10.61
968	-13.6
969	-12.22
970	-11.67
971	-12.6
972	-10.12
973	-16.25
974	-14.3
975	-11.48
976	-8.66
977	-11.94
978	-12.52
979	-13.05
980	-11.18
981	-10.85
982	-9.7
983	-14.86
984	-10.54
985	-11.86
986	-12.92
987	-14.71
988	-12.09
989	-13.71
990	-14.24
991	-13.8
992	-10.86
993	-12.82
994	-11.68
995	-9.86
996	-9.87
997	-13.33
998	-11.36
999	-9.84
1000	-12.76
