Data from USB2G577181__20__16-32-24-531.txt Node

Date: Tue Nov 15 16:32:24 PST 2022
User: gprabhakar
Spectrometer: USB2G57718
Scans to average: 1
Trigger mode: 4
Integration Time (sec): 1.000000E-1
Electric dark correction enabled: true
Boxcar width: 0
XAxis mode: Wavelengths
Number of Pixels in Spectrum: 651
>>>>>Begin Spectral Data<<<<<
350	0.66
351	2.1
352	-3.33
353	0.98
354	-0.41
355	-0.31
356	1.58
357	2.29
358	1.87
359	3.84
360	0.64
361	2.06
362	3.59
363	2.33
364	3.15
365	6.16
366	3.66
367	5.1
368	3.76
369	7.03
370	5.8
371	8.78
372	4.09
373	5.9
374	4.63
375	-0.93
376	4.2
377	7.63
378	3.35
379	10.51
380	9.74
381	5.76
382	8.04
383	11.06
384	8.37
385	6.43
386	9.09
387	4.64
388	3.5
389	10.97
390	5.24
391	8.54
392	5.83
393	9.41
394	11.04
395	9.89
396	5.63
397	8.01
398	11.95
399	7.72
400	9.9
401	14.89
402	8.19
403	13.61
404	12.39
405	13.84
406	16.2
407	12.79
408	11.4
409	10.41
410	15.41
411	16.23
412	9.04
413	15.02
414	18.29
415	17.95
416	18.07
417	20.71
418	18.23
419	21.79
420	16.83
421	20.67
422	22.94
423	19.22
424	24.01
425	25.03
426	28.78
427	22.67
428	25.74
429	27.19
430	24.81
431	30.98
432	32.4
433	28.43
434	30.17
435	34.72
436	35.62
437	39.17
438	44.87
439	39.35
440	36.19
441	41.97
442	41.88
443	44.18
444	50.74
445	57.24
446	53.59
447	58.49
448	57.92
449	55.76
450	69.54
451	66.03
452	71.82
453	77.28
454	79.48
455	85.73
456	88.56
457	90.01
458	101.99
459	105.64
460	120.07
461	132.64
462	153.99
463	178.35
464	199.19
465	224.97
466	252.78
467	293.49
468	328.3
469	359.7
470	407.93
471	447.63
472	495.4
473	524.07
474	553.58
475	568.44
476	568.86
477	583
478	631.91
479	661.58
480	675.18
481	752.53
482	777.2
483	801.97
484	813.13
485	794.95
486	837.45
487	801.8
488	851.2
489	889.46
490	890.75
491	857.34
492	865.74
493	883.58
494	901.95
495	909.85
496	949.44
497	980.96
498	1020.53
499	1011.62
500	1006.72
501	1012.26
502	1009.89
503	1003.28
504	1035.04
505	1027.83
506	1040.46
507	1044.75
508	1039.95
509	1040.31
510	1029.8
511	1006.49
512	1015.58
513	1005.24
514	976.44
515	931.2
516	937.73
517	933.24
518	895.44
519	864.3
520	885.44
521	888.55
522	881.2
523	860.46
524	848.1
525	820.55
526	783.2
527	771.57
528	741.43
529	722.89
530	709.29
531	667.4
532	643.61
533	547.14
534	513.67
535	446.19
536	385.71
537	353.91
538	330.13
539	287.42
540	259.06
541	230.44
542	218.09
543	195.35
544	177.85
545	153.21
546	145.7
547	137.45
548	120.4
549	106.77
550	96.52
551	99.19
552	95.48
553	90.39
554	88.78
555	81.95
556	75.22
557	84.92
558	77.45
559	73.82
560	68.01
561	62.84
562	72.83
563	61.94
564	62.16
565	55.46
566	54.11
567	57.93
568	54.04
569	50.17
570	51.69
571	51.99
572	49.98
573	41.71
574	51.02
575	46.11
576	45.94
577	44.6
578	37.97
579	45.52
580	36.66
581	33.12
582	39.05
583	34.76
584	35.02
585	36.52
586	37.96
587	30.91
588	33.13
589	32.28
590	31.67
591	29.01
592	32.8
593	30.74
594	30.07
595	29.05
596	28.15
597	29.98
598	27.33
599	23.52
600	27.81
601	24.54
602	24.22
603	28.22
604	22.9
605	26.58
606	21.6
607	20.15
608	22.81
609	18.88
610	21.93
611	19.98
612	20.72
613	19.54
614	15.88
615	15.92
616	15.46
617	16.22
618	20.13
619	16.94
620	14.76
621	14.96
622	17.39
623	17.47
624	17.9
625	15.47
626	11.3
627	13.97
628	11.95
629	11.57
630	11.08
631	14.08
632	13.6
633	12.29
634	8.82
635	14.03
636	10.13
637	10.2
638	11.4
639	13.72
640	10.21
641	6.88
642	9.23
643	8.41
644	10.84
645	6.19
646	8.97
647	10.3
648	6.7
649	8.74
650	8.75
651	4.07
652	9.06
653	8.59
654	9.28
655	5.62
656	3.69
657	3.21
658	5.07
659	4.32
660	5.32
661	3.71
662	6.05
663	4.01
664	3.68
665	4.42
666	2.84
667	1.21
668	2.22
669	2.21
670	-0.05
671	2.95
672	2
673	5.1
674	5.35
675	0.58
676	2.32
677	2.6
678	4.46
679	1.32
680	0.48
681	2.09
682	-0.14
683	6.11
684	-0.21
685	1.2
686	0.65
687	1.72
688	3.39
689	3.17
690	3.03
691	-1.72
692	-1.98
693	-2.03
694	-2.02
695	-3.24
696	-1.31
697	3.93
698	1.03
699	-3.33
700	-1.68
701	4.75
702	-0.73
703	-1.94
704	4.88
705	-0.18
706	0.1
707	-3.47
708	-2.23
709	-3.45
710	-2.56
711	-2.66
712	2.68
713	-1.28
714	-3.37
715	-0.8
716	-1.96
717	-1.59
718	0.26
719	-2.82
720	-1.76
721	-3.23
722	0.04
723	-4.41
724	1.05
725	-2.47
726	-0.97
727	-5.37
728	-1.54
729	-1.23
730	-4.07
731	-1.69
732	-5.44
733	-3.97
734	-2.98
735	-5.44
736	-6.27
737	-2.91
738	-0.04
739	-2.03
740	-4.02
741	-22.84
742	-1.94
743	-4
744	-2.35
745	-7.83
746	-2.7
747	-4.41
748	-2.13
749	-4.08
750	-2.85
751	-3.63
752	-5.43
753	-2.84
754	-5.43
755	-3.41
756	-1.76
757	-3.23
758	-4.95
759	-5.9
760	-4.02
761	-5.17
762	-7.44
763	-1.8
764	-7.65
765	-3.42
766	-9.47
767	-2.92
768	-2.64
769	-4.29
770	-5.01
771	-5.5
772	-7.97
773	-6.01
774	-6.83
775	-5.43
776	-4.8
777	-6.07
778	-6.9
779	-4.7
780	-4.05
781	-7.53
782	-9.48
783	-5.86
784	-3.9
785	-11.09
786	-10.31
787	-11.3
788	-3.64
789	-9.01
790	-6.03
791	-7.41
792	-9.36
793	-7.96
794	-5.92
795	-9.94
796	-7.33
797	-7.72
798	-8.38
799	-7.8
800	-6.97
801	-10.93
802	-6.49
803	-9.99
804	-8.55
805	-5.34
806	-7.27
807	-4.32
808	-5
809	-9.01
810	-6.04
811	-8.94
812	-11.12
813	-8.99
814	-8.05
815	-7.89
816	-5.18
817	-8.24
818	-6.84
819	-6.2
820	-9.39
821	-7.99
822	-10.71
823	-6.93
824	-8.53
825	-11.08
826	-10.18
827	-10.02
828	-8.37
829	-7.04
830	-7.46
831	-6.41
832	-8.98
833	-12.96
834	-9
835	-8.53
836	-10.79
837	-11.11
838	-3.92
839	-8.36
840	-8.79
841	-5.69
842	-9.07
843	-8.71
844	-7.05
845	-7.77
846	-9.82
847	-6.94
848	-13.22
849	-7.76
850	-8.18
851	-11.61
852	-11.71
853	-9.04
854	-10.71
855	-7.53
856	-10.03
857	-7.74
858	-9.71
859	-10.02
860	-10.12
861	-10.41
862	-10.02
863	-8.16
864	-14.93
865	-8.02
866	-10.46
867	-10.38
868	-9.04
869	-8.84
870	-11.57
871	-12.57
872	-10.14
873	-9.93
874	-11.38
875	-13.75
876	-11.03
877	-11.48
878	-8.68
879	-8.18
880	-8.9
881	-6.72
882	-6.58
883	-6
884	-10.33
885	-9.97
886	-11.87
887	-10.26
888	-11.63
889	-8.64
890	-12.07
891	-9.85
892	-7.71
893	-10.84
894	-9.39
895	-12.8
896	-13.15
897	-7.91
898	-10.76
899	-9.59
900	-11.25
901	-8.37
902	-12.17
903	-10.3
904	-10.94
905	-9.4
906	-10.93
907	-12.46
908	-12.13
909	-10.59
910	-10.29
911	-9.04
912	-13.87
913	-11.54
914	-10.8
915	-9.2
916	-7.42
917	-7.89
918	-12.75
919	-10.47
920	-10.02
921	-12.34
922	-10.7
923	-11.02
924	-10.17
925	-7.61
926	-13.33
927	-13
928	-14
929	-12.94
930	-7.94
931	-10.59
932	-7.7
933	-8.04
934	-12.07
935	-12.11
936	-11.46
937	-9.56
938	-7.01
939	-11.4
940	-11.47
941	-9.57
942	-12.78
943	-10.25
944	-10.92
945	-11.39
946	-8.86
947	-14.08
948	-9.18
949	-12.04
950	-13.95
951	-10.11
952	-12.9
953	-10.42
954	-12.92
955	-11.94
956	-14.36
957	-9.45
958	-12.6
959	-10.37
960	-11.64
961	-11.11
962	-10.96
963	-12.01
964	-13.65
965	-13.21
966	-11.25
967	-13.51
968	-12.41
969	-9.14
970	-8.99
971	-12.88
972	-12.54
973	-9.83
974	-11.84
975	-9.85
976	-10.34
977	-10.98
978	-13.32
979	-8.7
980	-11.17
981	-15.3
982	-15.32
983	-9.01
984	-11.96
985	-11.02
986	-12.89
987	-9.08
988	-9.35
989	-13.71
990	-9.77
991	-12.78
992	-11.06
993	-11.66
994	-12.18
995	-10.21
996	-10.01
997	-13.45
998	-8.82
999	-10.9
1000	-8.93
