Data from USB2G577181__13__16-20-37-721.txt Node

Date: Tue Nov 15 16:20:37 PST 2022
User: gprabhakar
Spectrometer: USB2G57718
Scans to average: 1
Trigger mode: 4
Integration Time (sec): 1.000000E-1
Electric dark correction enabled: true
Boxcar width: 0
XAxis mode: Wavelengths
Number of Pixels in Spectrum: 651
>>>>>Begin Spectral Data<<<<<
350	2.68
351	-0.15
352	-1.34
353	1.13
354	-2.33
355	-3.94
356	1.23
357	-0.86
358	1.55
359	1.1
360	1.94
361	2.28
362	3.72
363	4.65
364	2.89
365	2.65
366	-1.11
367	0.82
368	4.49
369	6.25
370	7.28
371	5.85
372	9.13
373	6.11
374	6.18
375	10.2
376	7.92
377	6.86
378	15.36
379	11.43
380	12.67
381	12.04
382	14.9
383	16.95
384	13.66
385	21.84
386	19.09
387	23.22
388	27.32
389	28.14
390	32.71
391	32.72
392	34.21
393	39.03
394	41.98
395	44.35
396	44.93
397	47.82
398	54.05
399	55.02
400	58.64
401	63.03
402	66.82
403	71.93
404	72.01
405	76.11
406	83
407	91.05
408	86.32
409	86.28
410	91.6
411	98.01
412	104.08
413	107.88
414	108.7
415	114.01
416	121.51
417	117.6
418	124.68
419	125.13
420	123.37
421	132.49
422	135.13
423	136.18
424	139.51
425	141.28
426	148.42
427	146.5
428	154.68
429	150.07
430	155.93
431	166.44
432	158.72
433	172.11
434	174.66
435	178.71
436	172.86
437	185.05
438	182.1
439	181.26
440	190.91
441	193.01
442	195.92
443	192.64
444	200.75
445	199.51
446	204.05
447	204.49
448	200.08
449	202.9
450	197.93
451	199.89
452	207.6
453	206.63
454	212.99
455	217.08
456	204.48
457	212.72
458	206.15
459	213.65
460	214.32
461	223.62
462	216.7
463	221.89
464	220.66
465	229.14
466	243.98
467	246.36
468	250.19
469	252.3
470	259.39
471	266.73
472	272.78
473	272.33
474	288.04
475	281.92
476	279.72
477	275.06
478	296.17
479	322.17
480	326.35
481	338.67
482	360.45
483	361.7
484	370.53
485	370.34
486	377.82
487	371.39
488	384.75
489	401.03
490	390.28
491	365.71
492	356.69
493	350.86
494	354.3
495	353.41
496	362.43
497	355.82
498	349.47
499	331.92
500	322.77
501	313.96
502	303.48
503	292.82
504	284.99
505	264.06
506	247.61
507	237.63
508	223.2
509	212.99
510	196.88
511	194.77
512	192.81
513	181.85
514	169.52
515	157.34
516	159
517	149.49
518	144.43
519	135.05
520	132.51
521	121.53
522	123.67
523	119.25
524	119.06
525	116.28
526	115.04
527	104.81
528	105.11
529	100.82
530	99.23
531	95
532	89.21
533	90.75
534	87.25
535	86.86
536	84.69
537	86.16
538	86.37
539	82.07
540	77.84
541	77.97
542	72.16
543	72.44
544	69.93
545	72.29
546	70.15
547	65.73
548	64.36
549	61.36
550	58.1
551	69.1
552	58.57
553	54.92
554	55.7
555	50.16
556	50.06
557	55.63
558	50.52
559	46.47
560	48.38
561	45.74
562	38.22
563	45.09
564	42.48
565	39.13
566	34.68
567	39.15
568	37.47
569	36.42
570	33.96
571	34.78
572	33.36
573	28.98
574	30.44
575	25.14
576	30.65
577	26.84
578	26.32
579	27.96
580	22.23
581	20.32
582	26
583	24.21
584	24.15
585	21.7
586	15.5
587	17.95
588	22.21
589	18.13
590	23.85
591	20.15
592	19.65
593	18.73
594	14.14
595	12.69
596	18.31
597	16.17
598	13
599	11.32
600	13.98
601	16.76
602	14.55
603	10.78
604	11.09
605	10.05
606	12.82
607	13.53
608	9.61
609	5.51
610	10.73
611	9.16
612	12.78
613	6.8
614	10.3
615	7.83
616	10.06
617	9.31
618	9.73
619	5.3
620	4.4
621	7.61
622	1.81
623	6.08
624	5.96
625	5.32
626	5.03
627	4.11
628	3.99
629	-0.2
630	-0.31
631	0.28
632	-0.39
633	4.45
634	1.65
635	0.07
636	-2.78
637	-1.89
638	2.76
639	0.99
640	1.99
641	-1.95
642	-1.02
643	-4.54
644	-4.71
645	-5.88
646	-4.85
647	-1.07
648	-2.6
649	-4.69
650	-0.74
651	-5.36
652	-6.79
653	-4.4
654	-6.53
655	-4.22
656	-3.45
657	-4.74
658	-2.74
659	-7.44
660	-3.81
661	-9.62
662	-8.88
663	-7.05
664	-6
665	-2.49
666	-8.56
667	-4.38
668	-8.7
669	-9.16
670	-10.09
671	-10.04
672	-9.84
673	-7.76
674	-7.98
675	-11.87
676	-12.21
677	-11.72
678	-10.11
679	-9.67
680	-11.47
681	-10.6
682	-9.69
683	-11.32
684	-9.5
685	-12.88
686	-10.16
687	-13.14
688	-12.89
689	-12.3
690	-10.93
691	-7.97
692	-10.75
693	-13.84
694	-13.83
695	-13.9
696	-12.6
697	-15.11
698	-15.39
699	-12.53
700	-17.39
701	-12.46
702	-13.2
703	-11.32
704	-13.21
705	-14.16
706	-12.06
707	-15.36
708	-13.86
709	-17.49
710	-15.28
711	-16.02
712	-15.73
713	-15.2
714	-17.22
715	-17.58
716	-18.07
717	-14.24
718	-14.15
719	-14.88
720	-13.52
721	-13.85
722	-15.51
723	-16.39
724	-18.77
725	-17.32
726	-17.54
727	-13.79
728	-16.71
729	-16.15
730	-13.05
731	-18.71
732	-16.29
733	-12.9
734	-14.06
735	-18.05
736	-18.31
737	-18.84
738	-16.91
739	-19.87
740	-16.92
741	-19.48
742	-15.78
743	-17.25
744	-16.64
745	-19.77
746	-19.26
747	-20.81
748	-19.75
749	-19.01
750	-16.86
751	-18.21
752	-15.61
753	-18.77
754	-16.67
755	-16.56
756	-18.11
757	-18.47
758	-15.95
759	-15.04
760	-21.8
761	-16.85
762	-18.91
763	-19.6
764	-17.59
765	-21.41
766	-20.91
767	-17.85
768	-21.83
769	-19.04
770	-16.9
771	-20.74
772	-19.83
773	-18.86
774	-16.02
775	-19.9
776	-21.51
777	-18.65
778	-20.74
779	-19.66
780	-20.21
781	-24.38
782	-19.21
783	-18.75
784	-15.89
785	-16.84
786	-18.18
787	-20.13
788	-18.23
789	-19.42
790	-20.42
791	-21.3
792	-21.91
793	-16.86
794	-16.98
795	-17.29
796	-22.51
797	-20.81
798	-19.84
799	-18.46
800	-21.92
801	-20.91
802	-19.17
803	-18.7
804	-23.59
805	-21.33
806	-22.55
807	-23.36
808	-18.85
809	-20.72
810	-18.87
811	-19.86
812	-22.88
813	-26.48
814	-20.96
815	-18.84
816	-17.56
817	-20.61
818	-22.72
819	-21.33
820	-16.83
821	-17.87
822	-18.39
823	-19.05
824	-20.85
825	-20.06
826	-25.64
827	-21.68
828	-19
829	-21.2
830	-21.2
831	-22.85
832	-19.88
833	-20.78
834	-20.48
835	-21.94
836	-22.82
837	-17.89
838	-20.91
839	-21.26
840	-21.68
841	-18.98
842	-22.96
843	-20.61
844	-20.79
845	-22
846	-21.69
847	-20.98
848	-17.93
849	-20.39
850	-21.54
851	-18.12
852	-19.88
853	-20.55
854	-21.95
855	-20.75
856	-20.88
857	-19.16
858	-18.82
859	-19.68
860	-20.86
861	-22.86
862	-20.61
863	-18.33
864	-19.68
865	-18.46
866	-19.05
867	-17.34
868	-18.62
869	-24.04
870	-20.82
871	-22.82
872	-19.05
873	-17.68
874	-23.88
875	-17.05
876	-21.85
877	-19.83
878	-22.95
879	-13.05
880	-22.15
881	-22.33
882	-23.25
883	-21.96
884	-22.86
885	-18.06
886	-23.55
887	-18.83
888	-20.62
889	-22.93
890	-18.85
891	-19.16
892	-19.64
893	-21.71
894	-22.7
895	-19.13
896	-24.11
897	-22.1
898	-18.38
899	-20.11
900	-22.32
901	-22.82
902	-19.98
903	-35.47
904	-19.92
905	-23.38
906	-19.78
907	-20.23
908	-20.97
909	-21.82
910	-21.74
911	-21.3
912	-20.74
913	-21.35
914	-19.59
915	-22.28
916	-23.32
917	-20.9
918	-23.98
919	-18.35
920	-21.93
921	-20.12
922	-20.24
923	-19.9
924	-18.34
925	-18.13
926	-22.61
927	-23.58
928	-21.86
929	-22.97
930	-20.42
931	-20.95
932	-22.09
933	-21.86
934	-22.57
935	-22.06
936	-22.55
937	-21.78
938	-23.86
939	-20.93
940	-24.68
941	-25.62
942	-22.53
943	-23.86
944	-23.04
945	-23.77
946	-18.06
947	-20.65
948	-19.5
949	-22.69
950	-19.97
951	-25.98
952	-21.97
953	-22.38
954	-24.67
955	-23
956	-21.39
957	-24.15
958	-19.67
959	-20.88
960	-18.23
961	-25.89
962	-22
963	-27.88
964	-20.63
965	-20.77
966	-21
967	-19.78
968	-22.12
969	-23.03
970	-22.22
971	-23.44
972	-24.33
973	-21.42
974	-24.18
975	-22.73
976	-23.53
977	-23.73
978	-23.02
979	-22.16
980	-23.11
981	-21.87
982	-22.02
983	-22.91
984	-22.98
985	-19.86
986	-19.03
987	-23.93
988	-20.82
989	-23.57
990	-20.12
991	-19.76
992	-22.4
993	-22.44
994	-25.1
995	-21.43
996	-19.86
997	-21.79
998	-21.14
999	-21.11
1000	-20.08
