Data from USB2G577181__1__15-06-48-062.txt Node

Date: Thu Nov 17 15:06:48 PST 2022
User: gprabhakar
Spectrometer: USB2G57718
Scans to average: 1
Trigger mode: 4
Integration Time (sec): 1.000000E-1
Electric dark correction enabled: true
Boxcar width: 0
XAxis mode: Wavelengths
Number of Pixels in Spectrum: 651
>>>>>Begin Spectral Data<<<<<
350	0.25
351	-1.49
352	-0.44
353	0.23
354	1.44
355	3.58
356	1.29
357	-1.1
358	-1.46
359	-1
360	-1
361	1.41
362	-0.31
363	0.74
364	-0.72
365	0.08
366	2.92
367	-1.26
368	-0.1
369	-1.79
370	-0.62
371	-4.17
372	3.2
373	5.48
374	0.62
375	2.53
376	-0.03
377	-1.36
378	5.23
379	4.04
380	2.15
381	2.45
382	2.83
383	6.05
384	2.36
385	9.07
386	5.12
387	8.07
388	4.52
389	8.24
390	9.19
391	7.29
392	5.2
393	5.2
394	8.66
395	9.21
396	6.97
397	6.65
398	15.01
399	9.63
400	12.31
401	11.82
402	11.25
403	10.53
404	15.64
405	13.04
406	12.75
407	11.63
408	11.62
409	17.38
410	17.46
411	17.91
412	17.78
413	16.41
414	17.88
415	17.91
416	13.67
417	20.36
418	21.67
419	21.36
420	17.38
421	20.2
422	20.23
423	26.14
424	26.37
425	20.37
426	28.67
427	28.73
428	34
429	30.64
430	30.79
431	36.13
432	42.66
433	46.96
434	50.9
435	57.59
436	82.03
437	129.38
438	194.34
439	241.8
440	284.05
441	323.35
442	345.02
443	367.09
444	368.87
445	381.01
446	414.66
447	455.2
448	528.33
449	513.51
450	620.37
451	858.55
452	1196.21
453	1919.45
454	2724.01
455	3130.72
456	3201.92
457	3180.42
458	3219.27
459	3246.07
460	3269.05
461	3270.62
462	3161.13
463	3208.98
464	3294.59
465	3325.18
466	3339.25
467	3360.48
468	3383.84
469	3399.06
470	3413.37
471	3441.53
472	3474.54
473	3480.16
474	3519.25
475	3482.29
476	3453.35
477	3406.18
478	3526.11
479	3586.82
480	3559.19
481	3619
482	3611.29
483	3621.33
484	3607.7
485	3567.63
486	3574.45
487	3499.15
488	3520.7
489	3503.05
490	3374.59
491	3241
492	3166.38
493	3096.18
494	3014.35
495	2980.57
496	2934.87
497	2783.49
498	2613.99
499	2495.82
500	2374.69
501	2220.49
502	2057.1
503	1952.34
504	1819.05
505	1747.61
506	1685.94
507	1609.52
508	1550
509	1469.26
510	1437.78
511	1378.55
512	1309.76
513	1274.99
514	1233.27
515	1162.89
516	1163.49
517	1126.14
518	1071.75
519	1068.47
520	1061.28
521	1025.65
522	1000.04
523	971.28
524	940.1
525	937.39
526	921.95
527	928.84
528	890.31
529	889.29
530	867.7
531	876.17
532	867.99
533	876.1
534	858.54
535	870.79
536	886.68
537	889.25
538	874.71
539	867.37
540	855.07
541	849.14
542	854.8
543	841.08
544	830.26
545	816.3
546	819.56
547	814.56
548	840.78
549	854.54
550	866.91
551	907.62
552	1021.88
553	1115.75
554	1142.3
555	1082.34
556	1013.69
557	933.4
558	882.61
559	840.1
560	767.1
561	740.39
562	680.86
563	631.53
564	563.46
565	528.62
566	492.24
567	462.1
568	441.65
569	425.07
570	403.86
571	398.58
572	379.63
573	378.24
574	368.59
575	357.98
576	337.31
577	342.11
578	327.26
579	336.82
580	320.85
581	322.26
582	311.98
583	305.11
584	300.18
585	297.09
586	287.33
587	289.68
588	282.7
589	291.74
590	274.92
591	267.45
592	256.62
593	248.39
594	240.74
595	228.32
596	237.24
597	235.23
598	222.8
599	211.9
600	212.59
601	209.14
602	208.02
603	205.55
604	197.26
605	185.78
606	185.64
607	186.65
608	175.47
609	172.51
610	164.22
611	162.2
612	158.82
613	154.91
614	152.81
615	145.85
616	142.31
617	134.29
618	134.13
619	132.14
620	128.71
621	118.83
622	120.82
623	116.8
624	112.09
625	108.51
626	101.13
627	96.39
628	98.5
629	93.05
630	93.49
631	85.4
632	86.54
633	86.06
634	79.43
635	75.12
636	75.21
637	70.65
638	70.48
639	69.24
640	65.16
641	62.87
642	62.03
643	61.85
644	57.54
645	55.46
646	55.29
647	52.95
648	50.31
649	49.28
650	46.87
651	41.29
652	42.26
653	44.9
654	38.31
655	40.91
656	32.64
657	33.38
658	35.3
659	30.18
660	31.65
661	32.49
662	29.38
663	26.83
664	22.15
665	23.35
666	21.15
667	20.81
668	21.62
669	17.17
670	20.29
671	23.33
672	21.27
673	15.78
674	14.86
675	16.46
676	18.44
677	18.27
678	16.21
679	11.19
680	16.08
681	15.1
682	11.07
683	15.13
684	11.65
685	10.33
686	9.89
687	8.3
688	7.39
689	8.12
690	10.08
691	5.16
692	7.14
693	5.22
694	7.21
695	3.3
696	4.65
697	6.15
698	7.03
699	11.17
700	2.53
701	4.3
702	3.4
703	4.8
704	6.85
705	0.85
706	6.55
707	4.32
708	2.55
709	5.51
710	7.19
711	0.86
712	-0.76
713	1.04
714	4.18
715	-0.2
716	10.81
717	4.09
718	-1.48
719	0.71
720	5.49
721	-0.04
722	2.47
723	2.54
724	1.71
725	4.72
726	0.34
727	2.67
728	-1.14
729	0.93
730	-1.49
731	-0.03
732	0.09
733	0.42
734	-2.8
735	-2.07
736	2.39
737	0.08
738	-2.92
739	-1.77
740	3.25
741	-0.92
742	1.25
743	-3.76
744	1.95
745	-1.49
746	2.71
747	-0.5
748	2.36
749	-2.08
750	-2.04
751	-1.9
752	-0.87
753	3.83
754	-1.17
755	0.82
756	-0.31
757	2.01
758	-1.74
759	-0.9
760	-6.75
761	-2.64
762	1.72
763	-3.24
764	-0.86
765	0.4
766	-1.58
767	-0.63
768	0.92
769	0.04
770	1.86
771	0.05
772	-3.25
773	-1.76
774	-0.68
775	1.41
776	0.69
777	-1.92
778	-4.07
779	0.47
780	-2
781	0.86
782	0.32
783	1.46
784	-2.97
785	-5.62
786	-7.17
787	1.02
788	-3.31
789	2.25
790	-1.32
791	-0.96
792	-0.35
793	-4.78
794	-1.25
795	-1.84
796	0.09
797	-1.84
798	-6.66
799	-2.01
800	-0.72
801	2.21
802	-0.05
803	1.04
804	2.9
805	-2.07
806	-0.03
807	-0.56
808	-1.75
809	0.08
810	-2.27
811	-0.02
812	-2.93
813	2.11
814	-1.58
815	1.12
816	-4.33
817	-4.34
818	-0.16
819	-2.91
820	-0.38
821	1.15
822	-2.79
823	-3.13
824	-0.94
825	-1.27
826	5.09
827	-2.75
828	-4.31
829	-3.67
830	-1.98
831	-2.92
832	-2.73
833	-4.02
834	0.03
835	-2.27
836	-4.09
837	-1.91
838	1.33
839	4.38
840	-3.43
841	-3.45
842	-0.66
843	-4.13
844	-2.2
845	-1.8
846	-2.4
847	-2.68
848	-2.23
849	-3.1
850	-3.52
851	-2
852	-2.9
853	-5.09
854	-0.78
855	0.42
856	-2.69
857	-3.02
858	-2.58
859	-0.23
860	-2.8
861	-1.36
862	0.62
863	-4.49
864	-2.01
865	-3.28
866	-1.58
867	-1.22
868	-2.06
869	-5.65
870	-1.8
871	-2.63
872	-1.69
873	-3.79
874	-1.81
875	-2.28
876	-3.75
877	-2.64
878	-5.02
879	-0.3
880	-4.4
881	0.11
882	-3.05
883	-3.85
884	-2.02
885	-1.63
886	-1.13
887	-4.63
888	-1.7
889	-2.26
890	3.29
891	-0.72
892	-1.08
893	-2.82
894	0.54
895	-0.05
896	-3.59
897	-3.3
898	-3.16
899	-3.04
900	-4.27
901	-0.24
902	-4.42
903	-0.15
904	-4.02
905	-1.22
906	-0.06
907	-9.57
908	-2.72
909	-3.27
910	-2.13
911	-2.7
912	-4.52
913	-2.99
914	-4.04
915	-4.85
916	-1.89
917	-0.92
918	-0.8
919	0.16
920	-0.75
921	1.05
922	-3.68
923	-3.43
924	0.73
925	-0.54
926	-1.09
927	-3.73
928	-2.8
929	-5
930	-0.97
931	-2.4
932	-3.08
933	-2.75
934	1.39
935	-1.33
936	-0.6
937	-4.76
938	-1.76
939	-3.93
940	-0.79
941	0.07
942	-5.14
943	-1.79
944	-5.01
945	-0.95
946	-5.86
947	-3.72
948	-0.55
949	-1.34
950	-2.6
951	-4.5
952	0.16
953	-5.02
954	-2.46
955	-3.36
956	0.46
957	-2.17
958	-0.32
959	-2.5
960	-1.98
961	-2.57
962	-2.55
963	-2.76
964	-2.11
965	-5.83
966	-1
967	-2.51
968	-1.43
969	-4.38
970	-6.03
971	-2.4
972	-7.23
973	-2.28
974	-0.02
975	-1.97
976	-3.83
977	1.15
978	-3.65
979	-3.57
980	-2.18
981	-3.19
982	-3.24
983	1.15
984	-4.59
985	-1.76
986	-0.8
987	-1.83
988	-1.15
989	-3.99
990	-5.49
991	-3.42
992	-3.65
993	-0.59
994	8.41
995	-3.45
996	-1.75
997	-2.15
998	-0.92
999	-0.87
1000	-3.27
