Data from USB2G577181__45__16-56-45-002.txt Node

Date: Tue Nov 15 16:56:45 PST 2022
User: gprabhakar
Spectrometer: USB2G57718
Scans to average: 1
Trigger mode: 4
Integration Time (sec): 1.000000E-1
Electric dark correction enabled: true
Boxcar width: 0
XAxis mode: Wavelengths
Number of Pixels in Spectrum: 651
>>>>>Begin Spectral Data<<<<<
350	-2.28
351	-1.42
352	2.86
353	2.95
354	-2.11
355	1.47
356	4.25
357	2.41
358	7.34
359	2.3
360	2.85
361	6.14
362	8.77
363	11.5
364	5.49
365	13.55
366	15.72
367	16.07
368	11.42
369	19.9
370	16.78
371	16.3
372	18.93
373	14.44
374	22.63
375	18.27
376	18.88
377	19.8
378	25.01
379	27.18
380	25.77
381	22.68
382	27
383	26.17
384	25.09
385	24.93
386	26.04
387	27.89
388	23.5
389	21.93
390	26.92
391	26.1
392	24.84
393	24.51
394	32.06
395	28.97
396	29.69
397	29.52
398	34.49
399	27.77
400	29.59
401	30.23
402	27.43
403	26.87
404	37.2
405	29.6
406	32.21
407	36.77
408	32.74
409	33.64
410	32.24
411	34.01
412	35.84
413	35.34
414	36.42
415	31.85
416	40.71
417	38.15
418	32.1
419	30.86
420	37.33
421	36.24
422	40.02
423	39.94
424	39.78
425	38.15
426	41.85
427	41.5
428	42.92
429	51.26
430	45.2
431	48.3
432	51.68
433	52.34
434	51.58
435	51.21
436	55.34
437	57.85
438	57.97
439	55.75
440	56.42
441	61.68
442	59.12
443	61.4
444	71
445	71.22
446	74.92
447	77.74
448	76.8
449	82.57
450	93.69
451	87.25
452	96.2
453	96.51
454	93.01
455	100.44
456	106.82
457	109.37
458	112.96
459	112.99
460	115.71
461	122.31
462	128.8
463	132.72
464	141.91
465	145.94
466	147.66
467	155.59
468	166
469	167.56
470	176.88
471	189.05
472	190.93
473	206.13
474	216.49
475	219.37
476	253.55
477	263.64
478	293.79
479	312.23
480	331.09
481	373.4
482	395.65
483	423.84
484	440.84
485	473.07
486	492.33
487	501.21
488	552.78
489	592.95
490	601.76
491	605.98
492	620.89
493	660.62
494	722.81
495	802.08
496	851.23
497	882.93
498	925.15
499	949.74
500	975.24
501	1001.29
502	1030.34
503	1057.88
504	1068.83
505	1126.65
506	1148.14
507	1175.18
508	1215.49
509	1232.87
510	1237.08
511	1264.61
512	1294.95
513	1317.26
514	1323.47
515	1342.47
516	1347.25
517	1361.82
518	1383.63
519	1391.01
520	1415.7
521	1449.84
522	1463.23
523	1468.46
524	1440.75
525	1444.23
526	1466.73
527	1520.83
528	1529.86
529	1547.58
530	1560.07
531	1523.96
532	1544.77
533	1576.66
534	1562.62
535	1544.99
536	1584.83
537	1606.97
538	1589.3
539	1579.34
540	1563.06
541	1609.34
542	1598.89
543	1610.14
544	1608.62
545	1612.38
546	1580.72
547	1540.96
548	1528.29
549	1470.77
550	1405.5
551	1336.94
552	1284.67
553	1206.57
554	1110.26
555	1015.45
556	918.22
557	812.87
558	720.43
559	633.75
560	573.95
561	521.92
562	478.5
563	433.28
564	415.26
565	401.89
566	357.29
567	340.99
568	317.25
569	312.71
570	303.04
571	283.04
572	272.24
573	261.83
574	248.88
575	236.52
576	227.15
577	221.49
578	208.77
579	200.22
580	193.27
581	196.67
582	184.82
583	183.77
584	180.92
585	165.28
586	169.45
587	162.7
588	165.02
589	151.25
590	159.78
591	145.18
592	136.59
593	138.72
594	138.39
595	129.69
596	130.35
597	130.95
598	119.75
599	122.72
600	121.62
601	113.88
602	112.02
603	112.87
604	107.11
605	98.86
606	102.58
607	98.39
608	92.3
609	96.81
610	86.56
611	88.94
612	85.64
613	86.25
614	83.66
615	79.05
616	74.68
617	71.82
618	72.84
619	68.27
620	70.59
621	64.65
622	57.23
623	59.75
624	48.91
625	54.46
626	52.87
627	54.95
628	46.09
629	52.68
630	47.04
631	47.18
632	40.47
633	43.79
634	46.87
635	38.5
636	30.94
637	39.52
638	36.21
639	33.7
640	39.64
641	29.12
642	35.94
643	29.5
644	28.51
645	25.52
646	21.96
647	28.18
648	25.51
649	22.88
650	17.61
651	18.5
652	17.59
653	17.32
654	23.89
655	16.74
656	16.43
657	13.95
658	7.97
659	12.9
660	11.17
661	11.27
662	9.26
663	6.25
664	8.2
665	6.22
666	2.97
667	0.91
668	10.77
669	2.61
670	2.23
671	-2.01
672	1.98
673	6.63
674	-0.51
675	-2.2
676	-0.15
677	-3.57
678	-1.36
679	-4.16
680	-1.41
681	-2.5
682	-2.29
683	-0.3
684	-7.66
685	-7.23
686	-4.32
687	-6.08
688	-2.81
689	-11.08
690	-1.53
691	-8.65
692	-0.94
693	-12.03
694	-4.07
695	-6.05
696	-7.64
697	-7.08
698	-6.03
699	-11.11
700	-8.61
701	-11.94
702	-9.37
703	-15.09
704	-15.33
705	-10.8
706	-14.43
707	-8.82
708	-9.41
709	-12.43
710	-14.95
711	-17.57
712	-20.23
713	-14.32
714	-14.77
715	-16.07
716	-14.66
717	-18.93
718	-21.49
719	-17.31
720	-17.36
721	-15.37
722	-16.41
723	-18.21
724	-17.47
725	-18.08
726	-20.08
727	-19
728	-18.91
729	-21.13
730	-23.36
731	-22.98
732	-21.18
733	-20.68
734	-19.23
735	-24.57
736	-21.22
737	-20.95
738	-19.01
739	-22.07
740	-24
741	-21.21
742	-24.48
743	-24.64
744	-22.42
745	-19.91
746	-22.1
747	-19.15
748	-24.43
749	-26.79
750	-23.75
751	-22.33
752	-23.81
753	-23.93
754	-22.57
755	-21.55
756	-24.64
757	-25.94
758	-23.62
759	-26.13
760	-23
761	-28.6
762	-27.71
763	-29.09
764	-28.52
765	-28.32
766	-29.59
767	-26.31
768	-25.24
769	-25.98
770	-26.86
771	-30.37
772	-28.81
773	-29.06
774	-29.47
775	-22.71
776	-30.42
777	-29.8
778	-34.04
779	-34.22
780	-29.39
781	-29
782	-30.02
783	-33.94
784	-30.91
785	-30.39
786	-31.91
787	-33.21
788	-29.03
789	-29.37
790	-34.66
791	-31.38
792	-33.95
793	-32
794	-26.44
795	-36.93
796	-30.45
797	-32.02
798	-32.6
799	-33.71
800	-32.16
801	-33.98
802	-34.92
803	-32.61
804	-33.32
805	-35.21
806	-33.47
807	-39.04
808	-38.04
809	-36.45
810	-33.7
811	-34.53
812	-37.29
813	-35.57
814	-37.71
815	-33
816	-36.15
817	-37.51
818	-37.16
819	-36.11
820	-38.6
821	-38.06
822	-38.1
823	-39.76
824	-36.91
825	-37.8
826	-33.83
827	-38.06
828	-37.87
829	-39.96
830	-38.81
831	-35.34
832	-40.12
833	-38.22
834	-38.29
835	-35.4
836	-38.08
837	-38.91
838	-41.91
839	-38.79
840	-42.26
841	-38.53
842	-43.19
843	-39.54
844	-38.66
845	-38.29
846	-38.29
847	-36.77
848	-39.74
849	-38.78
850	-33.71
851	-43.68
852	-44.03
853	-43.59
854	-41.23
855	-41.63
856	-41.11
857	-39.78
858	-38.13
859	-38.96
860	-43.67
861	-44.47
862	-45.08
863	-41.14
864	-42.91
865	-42.89
866	-42.19
867	-43.81
868	-43.69
869	-42.91
870	-43.72
871	-43.67
872	-45.19
873	-43.57
874	-40.6
875	-43.12
876	-42.04
877	-43.39
878	-41.86
879	-44.55
880	-41.31
881	-42.81
882	-43.23
883	-42.96
884	-47.21
885	-43.79
886	-43.61
887	-47.84
888	-43.18
889	-45.54
890	-45.06
891	-44.59
892	-44.68
893	-46.92
894	-42.91
895	-45.02
896	-44.65
897	-46.66
898	-46.94
899	-46.55
900	-47.3
901	-43.37
902	-48.78
903	-45.83
904	-47.38
905	-45.2
906	-46.66
907	-44.23
908	-45.79
909	-50.21
910	-45.96
911	-47.37
912	-47.68
913	-47.14
914	-45.65
915	-46.57
916	-46.95
917	-43.84
918	-44.85
919	-49.45
920	-47.1
921	-44.91
922	-47.19
923	-49.13
924	-44.75
925	-46.45
926	-49.41
927	-48.22
928	-50.09
929	-48.24
930	-47.75
931	-46.28
932	-48.43
933	-47.11
934	-44.33
935	-50.11
936	-46.78
937	-46.15
938	-48.04
939	-49.01
940	-51.72
941	-50.54
942	-47.35
943	-48.15
944	-51.83
945	-47.08
946	-47.29
947	-45.69
948	-48.7
949	-51.72
950	-50.9
951	-45.97
952	-45.11
953	-48.69
954	-47.41
955	-50.92
956	-47.81
957	-49.67
958	-48.31
959	-51.08
960	-49.49
961	-51.14
962	-44.97
963	-54.02
964	-48.73
965	-49.13
966	-50.17
967	-47.69
968	-49.15
969	-48.37
970	-48.1
971	-49.08
972	-50.52
973	-50.83
974	-49.13
975	-49.01
976	-50.23
977	-53.26
978	-53.3
979	-49.61
980	-48.54
981	-53.06
982	-50.31
983	-51.96
984	-52.46
985	-50.04
986	-49.15
987	-48.24
988	-50.2
989	-51.82
990	-48.41
991	-50.06
992	-45.73
993	-53.54
994	-46.3
995	-50.62
996	-51.05
997	-51.43
998	-52.83
999	-51.88
1000	-54.4
