Data from USB2G577181__41__16-52-40-966.txt Node

Date: Tue Nov 15 16:52:40 PST 2022
User: gprabhakar
Spectrometer: USB2G57718
Scans to average: 1
Trigger mode: 4
Integration Time (sec): 1.000000E-1
Electric dark correction enabled: true
Boxcar width: 0
XAxis mode: Wavelengths
Number of Pixels in Spectrum: 651
>>>>>Begin Spectral Data<<<<<
350	-2.58
351	2.05
352	-2.96
353	2.77
354	0.71
355	1.06
356	3.82
357	-0.73
358	4.63
359	6.06
360	6.33
361	1.71
362	5.95
363	7.36
364	2.84
365	8.73
366	13.27
367	11.59
368	9.27
369	4
370	11.78
371	14.02
372	5.88
373	11.79
374	13.32
375	15.76
376	15.29
377	16.43
378	13.27
379	16.49
380	19.27
381	18.86
382	18.38
383	12.75
384	26.3
385	19.99
386	26.88
387	26.83
388	24.47
389	24.78
390	25.86
391	25.18
392	21.78
393	29.67
394	28.65
395	29.92
396	30.84
397	33.92
398	38.2
399	36.65
400	36.88
401	32.78
402	36.33
403	35.17
404	35.04
405	38.15
406	36.56
407	34.06
408	39.77
409	39.9
410	39.53
411	36.77
412	38.86
413	39.69
414	40.01
415	47.7
416	45.51
417	44.85
418	45.65
419	49.49
420	44.66
421	50.93
422	50.74
423	48.69
424	53.47
425	49.82
426	59.07
427	59.54
428	56.03
429	62.47
430	62.31
431	64.7
432	63.37
433	66.26
434	68
435	69.74
436	72.85
437	71.04
438	77.78
439	77.28
440	75.68
441	84.59
442	90.55
443	89.07
444	74.58
445	94.72
446	95.19
447	96.53
448	108.75
449	106.9
450	116.35
451	115.93
452	115.67
453	118.29
454	127.44
455	131.23
456	130.06
457	134.2
458	148.77
459	154.33
460	157.26
461	169.28
462	175.16
463	178.22
464	183.44
465	195.76
466	202.11
467	215.93
468	230.96
469	246.78
470	265.76
471	280.92
472	292.95
473	317.65
474	336.44
475	354.29
476	366.23
477	375.29
478	419.57
479	454.87
480	468.13
481	522.79
482	561.37
483	592.14
484	601.4
485	644.01
486	683.75
487	692.03
488	743.53
489	782.23
490	800.86
491	785.88
492	800.44
493	835.43
494	853.15
495	887.66
496	962.36
497	966.76
498	968.99
499	993.06
500	1018.17
501	1024.2
502	1019.8
503	1033.1
504	1016.37
505	1029.28
506	1051.26
507	1079.88
508	1083.79
509	1086.92
510	1085.13
511	1084.62
512	1087.91
513	1076.63
514	1070.37
515	1067.81
516	1062.36
517	1073.6
518	1090.04
519	1102.06
520	1111.97
521	1094.86
522	1095.05
523	1088.06
524	1088.24
525	1101.96
526	1088.01
527	1095.38
528	1086.96
529	1094.17
530	1061.47
531	1060.3
532	1031.78
533	1033.94
534	1030.89
535	1019.15
536	1012.47
537	1035.79
538	1010.67
539	1011.44
540	993.43
541	988.7
542	972.73
543	956.74
544	959.99
545	933.6
546	920.67
547	899.45
548	891.2
549	864.63
550	826.08
551	756.6
552	684.14
553	648.82
554	596.26
555	551.48
556	506.8
557	461.73
558	425.89
559	378.67
560	353.76
561	317.14
562	279.1
563	261.01
564	247.04
565	232.32
566	214.28
567	209.74
568	204.4
569	197.95
570	186.42
571	183.76
572	174.22
573	167.51
574	159.54
575	154.64
576	150.97
577	141.68
578	145.51
579	140.28
580	126.81
581	123.72
582	129.08
583	125.9
584	117.62
585	113.5
586	111.01
587	110.06
588	105.25
589	101.35
590	103.15
591	98.91
592	98.29
593	91.54
594	87.2
595	85.11
596	84.09
597	87.85
598	88.69
599	79.01
600	86.49
601	76.3
602	74.38
603	75.04
604	67.71
605	69.23
606	71.55
607	68.72
608	62.41
609	59.81
610	62.99
611	62.69
612	66.2
613	56.48
614	56.08
615	55.96
616	49.84
617	51.26
618	54.52
619	52.11
620	53.28
621	44.96
622	46.22
623	46.08
624	41.55
625	36.35
626	40.63
627	40.76
628	36.25
629	35.87
630	33.12
631	36.17
632	36.51
633	33.41
634	28.91
635	29.99
636	30.79
637	30.54
638	31.68
639	28.5
640	27.87
641	29.33
642	24.24
643	27.89
644	25.84
645	22.8
646	25.86
647	21.85
648	18.71
649	17.17
650	16.37
651	21.6
652	19.13
653	17.11
654	18.83
655	11.68
656	12.82
657	10.87
658	15
659	18.36
660	13.44
661	14.24
662	10.19
663	10.62
664	9.37
665	5.78
666	12.12
667	12.13
668	-0.18
669	9.03
670	10.32
671	10.87
672	5.76
673	11.72
674	7.22
675	3.38
676	11.23
677	3.59
678	7.91
679	4.35
680	6.63
681	8.65
682	3.09
683	7.48
684	-0.18
685	-1.13
686	2.92
687	2.93
688	0.51
689	-2.54
690	-2.05
691	-1.36
692	3.86
693	-3.24
694	1.78
695	-0.38
696	-1.13
697	0.4
698	-2.77
699	-1.98
700	-6.49
701	-2.06
702	-10.73
703	-3.53
704	-2.25
705	-5.04
706	-4.37
707	-2.26
708	-1.53
709	-6.82
710	-7.21
711	-3.63
712	-7.42
713	-7.91
714	-7.16
715	-7.51
716	-10.28
717	-6.64
718	-4.86
719	-8.09
720	-5.22
721	-9.86
722	-9.14
723	-6.98
724	-9.48
725	-8.17
726	-4.86
727	-8.26
728	-7.87
729	-9.31
730	-9.63
731	-11.74
732	-7.71
733	-10.15
734	-13.62
735	-12.31
736	-12.85
737	-12.72
738	-9.27
739	-10.21
740	-13.3
741	-13.33
742	-11.85
743	-12.2
744	-10.24
745	-11.42
746	-14.2
747	-16.21
748	-10.77
749	-12.54
750	-11.14
751	-11.17
752	-14.45
753	-14.85
754	-13.88
755	-12.63
756	-11.57
757	-17.94
758	-14.45
759	-12.41
760	-16.26
761	-17.03
762	-12.95
763	-17.99
764	-17.74
765	-19.69
766	-15.11
767	-13.22
768	-13.69
769	-15.21
770	-13.84
771	-18.15
772	-19.5
773	-14.27
774	-16.45
775	-19.43
776	-18.08
777	-20.71
778	-18.05
779	-14.02
780	-19.66
781	-19.28
782	-20.29
783	-15.29
784	-20.3
785	-18.11
786	-19.73
787	-20.05
788	-18.21
789	-18.97
790	-20.57
791	-19.73
792	-15.42
793	-19.28
794	-21.42
795	-15.98
796	-18.94
797	-19.2
798	-21.14
799	-18.95
800	-24.5
801	-21.13
802	-20.78
803	-23.02
804	-21.17
805	-23
806	-22.89
807	-23.21
808	-37.24
809	-19.45
810	-21.71
811	-23.19
812	-21.79
813	-21.85
814	-23.97
815	-19.25
816	-25.04
817	-21.07
818	-23.91
819	-21.95
820	-19.05
821	-25.2
822	-21.14
823	-25.65
824	-24.93
825	-21.17
826	-21.74
827	-27.4
828	-22.61
829	-21.9
830	-22.95
831	-24.4
832	-22.31
833	-28.12
834	-27.09
835	-22.44
836	-27.42
837	-22.33
838	-27.39
839	-27.54
840	-26.35
841	-24.78
842	-26.65
843	-27.34
844	-26.66
845	-24.07
846	-28.74
847	-28.25
848	-27.47
849	-29.82
850	-23.08
851	-24.94
852	-23.41
853	-29.84
854	-28.77
855	-28.51
856	-25.34
857	-25.97
858	-28.37
859	-27.17
860	-25.38
861	-24.93
862	-29.48
863	-29.45
864	-27.53
865	-27.36
866	-30.11
867	-30.47
868	-25.33
869	-28.11
870	-25.75
871	-27.8
872	-29.36
873	-30.31
874	-26
875	-27.07
876	-32.25
877	-32.18
878	-28.79
879	-25.41
880	-27.51
881	-30.36
882	-29.54
883	-27.24
884	-31.57
885	-26.18
886	-30.98
887	-28.57
888	-28.76
889	-30.38
890	-26.21
891	-22.64
892	-30.94
893	-30.23
894	-31.64
895	-30.96
896	-31.15
897	-31.86
898	-26.64
899	-29.22
900	-28.32
901	-30.07
902	-29.65
903	-31.5
904	-30.36
905	-23.06
906	-31.42
907	-31.95
908	-25.45
909	-30.25
910	-31.54
911	-31.49
912	-30.54
913	-30.66
914	-28.23
915	-32.07
916	-30.74
917	-33.31
918	-30.96
919	-31.86
920	-31.21
921	-32.74
922	-33.73
923	-30
924	-32.07
925	-32.48
926	-29.67
927	-35.45
928	-34.25
929	-31.85
930	-29.6
931	-34.87
932	-33.53
933	-27.27
934	-35.83
935	-30.38
936	-32.45
937	-35.72
938	-34.23
939	-31.91
940	-32.14
941	-33.03
942	-33.83
943	-31.88
944	-34.67
945	-34.18
946	-32.12
947	-31.12
948	-33.15
949	-32.7
950	-33.53
951	-36.03
952	-35.43
953	-30.94
954	-34.08
955	-28.43
956	-36.86
957	-35.34
958	-32.97
959	-33.49
960	-30.73
961	-33.25
962	-34.17
963	-33.23
964	-33.4
965	-35.34
966	-34.83
967	-34.46
968	-30.67
969	-34.96
970	-33.06
971	-35.99
972	-34.83
973	-35.03
974	-35.54
975	-33.88
976	-32.55
977	-33.86
978	-33.82
979	-31.11
980	-34.12
981	-33.17
982	-36.78
983	-33.23
984	-36.33
985	-35.23
986	-37.05
987	-35.16
988	-32.76
989	-36.29
990	-33.07
991	-34.41
992	-34.54
993	-34.71
994	-34.1
995	-33.41
996	-34.23
997	-34.61
998	-36.1
999	-34.49
1000	-35.51
