Data from USB2G577181__44__16-55-51-373.txt Node

Date: Tue Nov 15 16:55:51 PST 2022
User: gprabhakar
Spectrometer: USB2G57718
Scans to average: 1
Trigger mode: 4
Integration Time (sec): 1.000000E-1
Electric dark correction enabled: true
Boxcar width: 0
XAxis mode: Wavelengths
Number of Pixels in Spectrum: 651
>>>>>Begin Spectral Data<<<<<
350	-1.43
351	-1.94
352	-0.39
353	-0.5
354	4.26
355	-0.83
356	3.54
357	3.02
358	2.85
359	5.27
360	2.89
361	4.42
362	6.25
363	5.45
364	5.67
365	7.01
366	6.25
367	4.05
368	7.49
369	6.59
370	3.49
371	9.55
372	6.49
373	8.64
374	3.76
375	10.7
376	11.34
377	11.32
378	15.4
379	8.07
380	8.86
381	13.25
382	9.12
383	10.56
384	11.41
385	11.08
386	14.43
387	15.61
388	17.71
389	17.48
390	20.97
391	18.32
392	17.43
393	16.69
394	22.02
395	19.72
396	16.65
397	19.33
398	19.78
399	15.81
400	20.51
401	20.91
402	22.18
403	23.52
404	22.83
405	24.41
406	27.58
407	28.33
408	21.3
409	27.63
410	23.9
411	24.94
412	28.32
413	27.61
414	26.97
415	27.87
416	28.49
417	31.66
418	32.55
419	28.31
420	31.47
421	32.38
422	32.47
423	32.06
424	32.52
425	32.47
426	32.7
427	34.34
428	32.82
429	38.15
430	33.68
431	36.51
432	34.37
433	39.21
434	40.8
435	37.53
436	37.84
437	41.64
438	41.36
439	39.42
440	42.86
441	43.31
442	41.05
443	43.97
444	42.99
445	41.42
446	45.45
447	43.71
448	51.24
449	45.5
450	51.03
451	48.57
452	50.07
453	45.47
454	50.42
455	60.58
456	59.67
457	56.47
458	54.5
459	58.07
460	56.62
461	53.51
462	59.32
463	56.2
464	63.23
465	59.5
466	63.6
467	64.15
468	59.9
469	68.22
470	70.38
471	70.83
472	72.75
473	71.58
474	74.42
475	74.26
476	76.42
477	78.57
478	86.5
479	84.47
480	91.94
481	95.02
482	91.44
483	100.29
484	106.58
485	99.7
486	109.09
487	108.54
488	118.11
489	121.55
490	119.9
491	130.79
492	127.87
493	130.89
494	138.82
495	137.76
496	150.79
497	151.6
498	166.35
499	176.64
500	180.46
501	184.82
502	199.25
503	200.88
504	207.58
505	224.39
506	238.3
507	251.33
508	270.83
509	290.55
510	315.83
511	341.84
512	363.54
513	414.72
514	444.92
515	492.83
516	526.92
517	568.91
518	606.55
519	661.17
520	698.49
521	724.24
522	763.49
523	805.93
524	825.58
525	865.08
526	901.89
527	938.58
528	959.21
529	1016.22
530	1073.42
531	1113.88
532	1154.95
533	1153.96
534	1205.2
535	1217.34
536	1252.72
537	1272.63
538	1310.87
539	1318.13
540	1338.8
541	1339.55
542	1368.22
543	1378.87
544	1384.62
545	1381.5
546	1384.2
547	1401.73
548	1401.52
549	1388.77
550	1396.35
551	1384.37
552	1387.7
553	1403.41
554	1393
555	1398.61
556	1404.52
557	1398.62
558	1420.99
559	1402.57
560	1393.68
561	1379.66
562	1407.62
563	1386.92
564	1387.16
565	1382.33
566	1367.61
567	1378.25
568	1346.82
569	1360.16
570	1331.44
571	1344.13
572	1306.3
573	1315.01
574	1297.52
575	1285.53
576	1218.25
577	1175.13
578	1190.3
579	1163.58
580	1131.33
581	1137.19
582	1143.76
583	1114.79
584	1097.24
585	1077.49
586	1031.9
587	976.82
588	931.18
589	874.72
590	796.28
591	729.71
592	679
593	621.47
594	560.83
595	515.33
596	477.22
597	451.6
598	421.82
599	375.68
600	358.62
601	338.6
602	312.96
603	295.83
604	268.3
605	254.38
606	245.5
607	234.27
608	220.95
609	211.64
610	192.46
611	180.5
612	176.63
613	173.51
614	160.38
615	149.74
616	143.95
617	141.61
618	137.64
619	134.66
620	131.83
621	123.88
622	118.55
623	118.2
624	114.92
625	111.51
626	104.71
627	104.44
628	100.43
629	101.71
630	98.5
631	95.28
632	94.66
633	87.68
634	83.46
635	85.41
636	79.49
637	74.83
638	87.1
639	86.35
640	76.88
641	75.62
642	72.5
643	68.6
644	66.37
645	67.58
646	64.57
647	64.4
648	60.67
649	58.2
650	56.03
651	57.51
652	56.73
653	57.6
654	57.3
655	56.22
656	50.83
657	55.59
658	49.58
659	49.51
660	44.73
661	44.47
662	46.5
663	46.88
664	47.2
665	47.16
666	43.73
667	45.71
668	38.34
669	36.51
670	39.65
671	38.47
672	34.51
673	35.45
674	47.35
675	33.93
676	35.91
677	38.5
678	33.24
679	35.78
680	32.84
681	29.08
682	25.44
683	26.34
684	27.25
685	27.82
686	22.79
687	19.29
688	28.36
689	22.48
690	25.51
691	25.52
692	19.72
693	22.54
694	21.5
695	19.29
696	17.49
697	19.31
698	22.58
699	20.06
700	18.63
701	20.22
702	22.2
703	19.13
704	16.35
705	19.73
706	9.61
707	12.93
708	16.78
709	17.17
710	17.08
711	11.56
712	16.34
713	15.05
714	16.03
715	15.24
716	13.63
717	11.04
718	12.53
719	14.06
720	10.82
721	12.61
722	15.7
723	11.81
724	11.17
725	11.63
726	9.47
727	14.02
728	11.1
729	5.98
730	7.24
731	12.31
732	10.16
733	12.29
734	11.9
735	11.93
736	7.63
737	6.51
738	8.43
739	10.5
740	13.44
741	5.6
742	6.57
743	10.6
744	10.15
745	8.24
746	2.66
747	6.34
748	9.88
749	4.91
750	6.17
751	5.32
752	8.55
753	8.34
754	1.92
755	6.01
756	3.85
757	7.54
758	3.63
759	2.66
760	0.5
761	3.54
762	5.5
763	6.95
764	5.03
765	2.74
766	3.32
767	2.33
768	2.9
769	3.72
770	3.3
771	-0.27
772	2.62
773	2.51
774	-0.4
775	4.37
776	2.38
777	3.74
778	3.82
779	0.31
780	2.58
781	3.1
782	1.55
783	2.49
784	-0.4
785	1.66
786	1.22
787	2.29
788	4.17
789	-0.12
790	3.45
791	4.62
792	-0.75
793	-0.47
794	1.19
795	-1.58
796	1.62
797	1.49
798	1.39
799	-0.14
800	-0.84
801	-4.41
802	1.5
803	0.46
804	-4.18
805	-2.03
806	-1.96
807	-1.86
808	-0.49
809	2.45
810	3.02
811	-0.93
812	-1.43
813	-2.07
814	0.37
815	-0.56
816	-1.03
817	-4.2
818	-2.11
819	-0.62
820	-0.92
821	-0.48
822	-6.44
823	-2.89
824	-4.85
825	-5.37
826	-1.87
827	-4.48
828	-3.6
829	-5.79
830	-2.4
831	-6.5
832	-5.54
833	-4.71
834	-2.01
835	-5.86
836	-4.55
837	-2.46
838	-4.33
839	-0.95
840	-6.75
841	-2.67
842	-1.95
843	-2.71
844	-3.19
845	-6.69
846	-3.92
847	-8.39
848	-9.45
849	-7.72
850	-4.48
851	-3.06
852	-6.5
853	-4.08
854	-3.4
855	-6.97
856	-4.46
857	-3.42
858	-7.23
859	-9.13
860	-3.87
861	-8.43
862	-7.97
863	-7.07
864	-9.27
865	-10.98
866	-5.07
867	-7
868	-4.43
869	-10.04
870	-8.83
871	-8.4
872	-4.41
873	-9.55
874	-5.65
875	-6.67
876	-6.56
877	-7.44
878	-7.89
879	-6.39
880	-5.33
881	-8.73
882	-8.87
883	-11.5
884	-11.21
885	-8.63
886	-7.17
887	-9.32
888	-4.45
889	-13.85
890	-7.46
891	-11.25
892	-10.77
893	-8.44
894	-9.15
895	-10.24
896	-10.56
897	-9.61
898	-7.83
899	-9.06
900	-11.36
901	-7.9
902	-11.22
903	-7.6
904	-11.96
905	-9.83
906	-12.06
907	-5.35
908	-5.39
909	-9.05
910	-8.3
911	-8.82
912	-10.89
913	-7.52
914	-12.03
915	-12.9
916	-8.48
917	-11.41
918	-10.43
919	-10.69
920	0.44
921	-12.05
922	-11.27
923	-12.46
924	-11.52
925	-12.98
926	-11.85
927	-8.15
928	-10.45
929	-12.3
930	-14.08
931	-11.35
932	-12.26
933	-12.46
934	-9.92
935	-14.58
936	-11.83
937	-13.18
938	-13.49
939	-8.65
940	-12.98
941	-14.47
942	-9.99
943	-14.12
944	-8.78
945	-9.36
946	-8.01
947	-13.69
948	-14.72
949	-9.5
950	-11.53
951	-13.31
952	-14.71
953	-9.4
954	-12.1
955	-15.66
956	-14.22
957	-16.29
958	-11.93
959	-12.8
960	-13.87
961	-16.15
962	-9.71
963	-13.51
964	-12.27
965	-15.45
966	-14.09
967	-12.96
968	-13.9
969	-12.58
970	-13.52
971	-13.15
972	-14.18
973	-15.79
974	-15.81
975	-15.31
976	-11.3
977	-15.18
978	-12.15
979	-16.45
980	-13.73
981	-14.61
982	-16.93
983	-12.42
984	-11.95
985	-15.49
986	-13.66
987	-16.35
988	-14.17
989	-14.23
990	-11.26
991	-13.57
992	-16.26
993	-13.86
994	-11.5
995	-13.92
996	-18.49
997	-12.62
998	-18.04
999	-13.94
1000	-13.34
