Data from USB2G577181__37__16-48-16-341.txt Node

Date: Tue Nov 15 16:48:16 PST 2022
User: gprabhakar
Spectrometer: USB2G57718
Scans to average: 1
Trigger mode: 4
Integration Time (sec): 1.000000E-1
Electric dark correction enabled: true
Boxcar width: 0
XAxis mode: Wavelengths
Number of Pixels in Spectrum: 651
>>>>>Begin Spectral Data<<<<<
350	-0.08
351	-3.7
352	0.83
353	2.48
354	0.47
355	3.59
356	2.94
357	3.68
358	5.54
359	8.58
360	9.37
361	6.37
362	13.77
363	6.72
364	13.61
365	15.73
366	15.13
367	12.46
368	15.94
369	17.51
370	11.45
371	19.85
372	27.49
373	17.59
374	16.98
375	19.42
376	23.74
377	20.7
378	29.82
379	27.25
380	27.25
381	29.97
382	30.03
383	36.83
384	32.78
385	31.3
386	32.26
387	33.4
388	31.88
389	35.5
390	36.09
391	37.51
392	45.21
393	36.06
394	47.76
395	41.67
396	43.18
397	43.99
398	43.2
399	43.52
400	48.4
401	49.11
402	48.33
403	49.22
404	53.22
405	54.46
406	50.18
407	49.72
408	55.44
409	54.48
410	50.07
411	58.37
412	57.41
413	55.67
414	57.52
415	60.86
416	63.36
417	64.52
418	68.18
419	66.2
420	66.35
421	67.94
422	68.52
423	74.22
424	75.37
425	73.45
426	73.78
427	77.36
428	76.63
429	79.93
430	85.61
431	87.36
432	96.16
433	96.11
434	101.6
435	101.08
436	104.37
437	109.98
438	111.46
439	119.83
440	119.54
441	127.49
442	130.36
443	136.84
444	141.07
445	146.07
446	156.97
447	173.52
448	182.37
449	190.4
450	203.79
451	209.28
452	227.29
453	242.09
454	264.44
455	262.9
456	290.7
457	288.85
458	301.48
459	337.56
460	344.41
461	365.59
462	384.45
463	398.77
464	416.24
465	416.38
466	449.67
467	467.76
468	481.61
469	509.67
470	536.86
471	558.44
472	577.24
473	581.99
474	605.15
475	600.65
476	614.37
477	621.43
478	672.55
479	711.35
480	719
481	763.09
482	778.07
483	825.2
484	837.32
485	844.7
486	864.97
487	845.63
488	892.63
489	946.54
490	935.96
491	907.16
492	919.64
493	937.45
494	969.87
495	1005
496	1044.87
497	1047.89
498	1037.13
499	1058.44
500	1106.81
501	1131.78
502	1135.79
503	1145.76
504	1158.81
505	1152.36
506	1182.99
507	1195.31
508	1205.44
509	1218.01
510	1197.55
511	1215.63
512	1198.61
513	1201.17
514	1208.3
515	1193.8
516	1181.18
517	1177.93
518	1159.3
519	1150.98
520	1152.25
521	1144.2
522	1145.13
523	1118.44
524	1133.59
525	1141.33
526	1110.1
527	1080.68
528	1060.48
529	1044.86
530	994.98
531	931.15
532	833.74
533	811.1
534	742.52
535	680.63
536	644.25
537	578.38
538	542.87
539	492.54
540	446.17
541	410.64
542	378.76
543	341.04
544	312.3
545	293.52
546	274.22
547	262.45
548	246.09
549	230.87
550	222.32
551	212.51
552	208.86
553	202.57
554	197.36
555	188.42
556	179.29
557	170.19
558	161.96
559	160.19
560	156.63
561	159.3
562	149.39
563	139.89
564	140.53
565	136.15
566	133.16
567	128.48
568	136.21
569	123.62
570	112.5
571	119.95
572	103.49
573	114.49
574	106.32
575	109.89
576	104.5
577	95.6
578	99.41
579	86.62
580	85.07
581	88.77
582	86.2
583	83.48
584	83.28
585	84.56
586	78.55
587	75.39
588	79.67
589	77.66
590	70.53
591	64.64
592	73.05
593	67.19
594	70.05
595	69.57
596	60.42
597	65.5
598	57.72
599	60.56
600	59.37
601	52.75
602	54.48
603	51.02
604	50.43
605	52.57
606	54.63
607	43.16
608	42.88
609	46.95
610	40.92
611	42.41
612	38.29
613	47.79
614	38.34
615	34.52
616	37.52
617	36.75
618	37.89
619	32.98
620	39.36
621	28.01
622	29.39
623	29.89
624	28.96
625	22.99
626	25.69
627	30.43
628	23.06
629	22.99
630	22
631	18.36
632	18.2
633	20.03
634	25.7
635	17.22
636	19.43
637	17.5
638	15.65
639	15.74
640	16.48
641	15.79
642	18.65
643	10.88
644	11.7
645	12.38
646	10.6
647	4.16
648	11.85
649	0.57
650	4.23
651	4.62
652	7.9
653	3.14
654	8.54
655	2.63
656	2.67
657	2.35
658	2.41
659	4.97
660	1.54
661	0.6
662	1.55
663	-0.25
664	2.01
665	-7.49
666	-0.78
667	-5.23
668	3.24
669	0.45
670	-1.98
671	-1.51
672	-1.55
673	-7.72
674	-7.09
675	-0.93
676	-1.55
677	-4.39
678	-5.65
679	-7.24
680	-6.9
681	-6.88
682	-6.25
683	-8.45
684	-5.01
685	-7.98
686	-5.74
687	-9.8
688	-9.32
689	-12.32
690	-9.65
691	-12.99
692	-10.55
693	-7.53
694	-15.45
695	-14.51
696	-13.02
697	-10.48
698	-6.31
699	-13.32
700	-11.75
701	-15.66
702	-13.38
703	-12.08
704	-15.46
705	-12.65
706	-12.85
707	-13.9
708	-14.71
709	-14.51
710	-19.61
711	-14.8
712	-16.01
713	-17.84
714	-13.16
715	-17.55
716	-13.38
717	-14.23
718	-17.88
719	-13.44
720	-16.36
721	-17.2
722	-20.82
723	-18.08
724	-18.1
725	-18.74
726	-21.87
727	-20.41
728	-15.23
729	-17.49
730	-21.26
731	-27.45
732	-21.77
733	-23.04
734	-18.16
735	-20.78
736	-20.74
737	-20.82
738	-22.46
739	-23.54
740	-24.52
741	-22.23
742	-20.51
743	-26.57
744	-27.37
745	-26.06
746	-21.5
747	-24.99
748	-22.42
749	-27.4
750	-25.64
751	-24.2
752	-21.86
753	-24.09
754	-23.5
755	-26.94
756	-28.53
757	-24.49
758	-23.45
759	-26.39
760	-25.44
761	-29.3
762	-25.64
763	-30.72
764	-26.76
765	-27.31
766	-26.64
767	-27.44
768	-25.98
769	-28.81
770	-28.37
771	-31.25
772	-27.7
773	-29.52
774	-27.38
775	-29.73
776	-26.37
777	-31.07
778	-31.06
779	-31.64
780	-32.33
781	-31.56
782	-29.86
783	-29.49
784	-32.56
785	-27.87
786	-29.62
787	-32.23
788	-29.8
789	-31.85
790	-31.14
791	-29.95
792	-31.26
793	-31.46
794	-32.77
795	-36.96
796	-29.95
797	-29.6
798	-33.63
799	-37.67
800	-34.58
801	-34.53
802	-33.64
803	-35.71
804	-35.49
805	-36.45
806	-35.41
807	-35.87
808	-32.52
809	-32.39
810	-30.84
811	-32.22
812	-30.73
813	-31.63
814	-37.66
815	-30.24
816	-35.4
817	-35.39
818	-37.39
819	-38.32
820	-31.34
821	-33.57
822	-35.97
823	-35.22
824	-37.29
825	-34.82
826	-35.56
827	-40.56
828	-34.33
829	-37.21
830	-36.05
831	-36.04
832	-34.38
833	-35.78
834	-38.69
835	-41.52
836	-35.9
837	-37.46
838	-36.79
839	-40.27
840	-38.36
841	-38.21
842	-36.61
843	-35.87
844	-42.77
845	-39.01
846	-41.8
847	-41.68
848	-38.01
849	-39.22
850	-39.98
851	-40.84
852	-41.46
853	-42.37
854	-37.15
855	-37.59
856	-39.53
857	-39.28
858	-39.97
859	-41.15
860	-41.73
861	-39.26
862	-38.93
863	-40.85
864	-39.16
865	-39.77
866	-45.64
867	-39.43
868	-41.74
869	-40.66
870	-40.69
871	-41.95
872	-40.95
873	-40.07
874	-40.78
875	-42.35
876	-40.55
877	-44.21
878	-40.5
879	-40.75
880	-41.54
881	-41.38
882	-41.07
883	-46.54
884	-38.8
885	-41.27
886	-42.62
887	-40.47
888	-42.31
889	-39.92
890	-45.56
891	-42.06
892	-42.39
893	-42.48
894	-41.49
895	-41.91
896	-40.62
897	-39.93
898	-43.49
899	-42.92
900	-43.87
901	-45.1
902	-43.28
903	-41.67
904	-46.96
905	-46.27
906	-49.4
907	-43.74
908	-43.57
909	-42.19
910	-44.61
911	-43.06
912	-41.49
913	-40.77
914	-47.32
915	-46.25
916	-46.19
917	-45.34
918	-43.4
919	-46.79
920	-41.57
921	-47.24
922	-43.76
923	-46.41
924	-42.08
925	-43.26
926	-42.6
927	-45.29
928	-42.47
929	-47.02
930	-46.69
931	-43.04
932	-43.83
933	-46.49
934	-44.53
935	-45.05
936	-46.31
937	-43.59
938	-47.53
939	-45.92
940	-45.93
941	-48.57
942	-43.06
943	-46.86
944	-45.48
945	-43.68
946	-46.2
947	-46.14
948	-42.5
949	-42.46
950	-45.63
951	-50.25
952	-47.59
953	-44.03
954	-45.16
955	-44.2
956	-46.2
957	-42.95
958	-46.3
959	-46.25
960	-42.73
961	-47.6
962	-44.06
963	-45.5
964	-41.84
965	-43.42
966	-49.97
967	-46.48
968	-43.26
969	-45.6
970	-46.09
971	-47.64
972	-46.16
973	-47.52
974	-44.46
975	-47.91
976	-44.58
977	-46.73
978	-48.21
979	-47.85
980	-46.37
981	-50.41
982	-44.69
983	-45.31
984	-46.66
985	-51.53
986	-44.65
987	-46.44
988	-44.36
989	-43
990	-44.69
991	-45.97
992	-47.26
993	-46.11
994	-45.61
995	-49.93
996	-44.53
997	-46.9
998	-46.18
999	-44.46
1000	-48.31
